timestamps,Fz,F3,C4,Cz,Pz,P3,O2,O1,Marker
14583.808,-16828.762,-14968.874,-11048.512,-14919.924,-1413.815,-16963.723,-8878.851,-6421.008,0
14583.808,-16828.473,-14968.650,-11045.539,-14917.532,-1414.843,-16963.008,-8879.655,-6424.182,0
14583.808,-16822.504,-14960.090,-11041.024,-14908.814,-1413.815,-16957.688,-8880.996,-6426.618,0
14583.809,-16822.771,-14959.263,-11042.566,-14908.636,-1411.937,-16958.760,-8880.930,-6423.579,0
14583.809,-16826.863,-14964.136,-11047.618,-14915.006,-1413.435,-16966.650,-8883.656,-6425.098,0
14583.809,-16828.428,-14964.806,-11048.646,-14918.516,-1415.178,-16970.809,-8884.081,-6424.137,0
14583.868,-16825.320,-14962.034,-11045.874,-14913.353,-1416.966,-16967.188,-8885.243,-6425.434,0
14583.869,-16819.979,-14958.569,-11043.304,-14904.971,-1416.162,-16960.102,-8887.992,-6425.925,0
14583.869,-16818.145,-14956.356,-11044.980,-14907.519,-1416.788,-16960.191,-8889.534,-6427.088,0
14583.869,-16819.441,-14958.257,-11047.953,-14915.587,-1417.212,-16965.020,-8887.970,-6426.931,0
14583.869,-16819.219,-14958.011,-11048.557,-14919.588,-1417.637,-16967.635,-8886.808,-6427.915,0
14583.869,-16816.379,-14954.346,-11045.830,-14914.090,-1417.972,-16964.885,-8888.998,-6432.452,0
14583.869,-16813.361,-14951.752,-11042.812,-14905.909,-1417.726,-16959.543,-8890.250,-6434.218,0
14583.870,-16814.904,-14953.697,-11044.712,-14907.474,-1417.078,-16959.564,-8890.205,-6429.010,0
14583.870,-16821.230,-14960.872,-11050.390,-14915.744,-1417.749,-16966.516,-8890.921,-6427.959,0
14583.870,-16824.650,-14967.265,-11052.960,-14919.499,-1417.883,-16970.875,-8888.238,-6426.954,0
14583.870,-16821.408,-14965.364,-11049.160,-14913.353,-1418.553,-16967.477,-8886.986,-6426.931,0
14583.870,-16819.844,-14963.755,-11046.389,-14906.468,-1419.470,-16963.297,-8889.557,-6429.814,0
14583.871,-16822.326,-14963.979,-11048.333,-14908.770,-1417.436,-16964.215,-8890.228,-6429.681,0
14583.871,-16825.701,-14968.673,-11049.652,-14916.369,-1416.564,-16969.377,-8886.539,-6426.193,0
14583.871,-16826.035,-14969.790,-11048.780,-14919.343,-1415.894,-16970.406,-8883.500,-6424.651,0
14583.927,-16825.990,-14967.533,-11048.244,-14916.190,-1418.308,-16969.266,-8887.099,-6428.742,0
14583.927,-16821.432,-14959.710,-11042.455,-14907.519,-1417.704,-16964.504,-8891.457,-6434.777,0
14583.927,-16822.951,-14959.173,-11044.847,-14909.083,-1419.246,-16968.238,-8897.000,-6441.147,0
14583.927,-16824.270,-14962.012,-11049.630,-14915.989,-1420.386,-16973.826,-8898.073,-6441.728,0
14583.927,-16823.041,-14963.510,-11051.932,-14918.649,-1422.644,-16977.580,-8897.313,-6441.191,0
14583.928,-16819.979,-14962.526,-11049.271,-14913.419,-1424.499,-16975.658,-8897.648,-6442.667,0
14583.928,-16817.096,-14958.949,-11045.472,-14906.334,-1424.410,-16971.479,-8900.196,-6443.941,0
14583.928,-16818.525,-14958.771,-11047.729,-14908.256,-1423.046,-16971.479,-8898.386,-6442.868,0
14583.928,-16823.979,-14964.068,-11051.865,-14917.644,-1423.516,-16977.736,-8895.994,-6443.784,0
14583.928,-16824.918,-14964.739,-11053.317,-14922.829,-1423.001,-16980.039,-8892.463,-6441.795,0
14583.928,-16820.516,-14957.698,-11049.965,-14917.442,-1421.102,-16972.461,-8890.361,-6431.268,0
14583.928,-16814.078,-14947.751,-11044.377,-14909.843,-1421.392,-16967.119,-8893.356,-6438.018,0
14583.928,-16815.039,-14948.109,-11045.606,-14912.793,-1422.554,-16969.646,-8894.362,-6442.801,0
14583.928,-16818.615,-14952.646,-11050.188,-14919.924,-1422.376,-16973.691,-8892.328,-6435.760,0
14583.928,-16819.889,-14956.223,-11051.552,-14923.566,-1422.286,-16975.256,-8890.339,-6433.436,0
14583.987,-16817.430,-14954.726,-11047.148,-14917.309,-1423.404,-16972.775,-8890.786,-6436.833,0
14583.988,-16815.418,-14951.283,-11043.662,-14909.933,-1424.499,-16969.064,-8892.508,-6436.721,0
14583.988,-16817.832,-14954.346,-11045.941,-14911.988,-1424.790,-16972.328,-8895.145,-6437.772,0
14583.988,-16822.258,-14960.201,-11049.115,-14918.918,-1423.851,-16978.408,-8894.229,-6437.705,0
14583.988,-16823.309,-14962.995,-11049.741,-14922.807,-1423.404,-16980.531,-8890.697,-6435.157,0
14583.989,-16817.162,-14954.278,-11044.198,-14916.124,-1421.996,-16974.965,-8888.015,-6432.765,0
14583.989,-16811.730,-14946.030,-11039.035,-14909.553,-1423.940,-16970.494,-8890.965,-6436.163,0
14583.989,-16813.562,-14950.456,-11040.107,-14912.391,-1424.186,-16971.746,-8891.904,-6437.660,0
14583.989,-16820.627,-14959.821,-11045.025,-14919.544,-1422.621,-16976.977,-8888.507,-6435.447,0
14583.989,-16820.717,-14961.162,-11046.880,-14922.718,-1421.459,-16978.877,-8885.958,-6431.401,0
14583.989,-16817.541,-14960.067,-11043.751,-14916.728,-1421.772,-16975.838,-8887.881,-6432.139,0
14583.990,-16817.609,-14960.045,-11043.036,-14909.999,-1423.158,-16973.400,-8895.771,-6439.113,0
14583.990,-16820.402,-14964.068,-11044.869,-14911.273,-1421.325,-16974.965,-8895.771,-6437.548,0
14583.990,-16824.135,-14968.158,-11049.004,-14920.080,-1421.929,-16980.934,-8894.452,-6438.487,0
14583.990,-16826.146,-14972.227,-11050.613,-14924.975,-1423.426,-16983.928,-8893.089,-6438.509,0
14583.990,-16824.471,-14971.132,-11046.456,-14919.700,-1424.477,-16982.342,-8893.111,-6439.403,0
14584.048,-16819.396,-14966.527,-11040.220,-14910.268,-1423.471,-16977.402,-8894.005,-6440.745,0
14584.048,-16819.912,-14972.025,-11041.002,-14911.608,-1423.225,-16979.213,-8896.731,-6443.650,0
14584.048,-16819.889,-14973.054,-11043.080,-14917.196,-1423.493,-16983.795,-8895.257,-6443.024,0
14584.048,-16819.441,-14974.932,-11043.125,-14920.304,-1425.460,-16987.482,-8893.514,-6445.103,0
14584.049,-16817.162,-14974.864,-11039.415,-14915.252,-1427.204,-16985.516,-8894.563,-6447.763,0
14584.049,-16816.312,-14973.366,-11036.599,-14908.256,-1427.092,-16980.195,-8898.028,-6447.830,0
14584.049,-16819.711,-14977.412,-11039.705,-14910.894,-1427.651,-16982.564,-8902.744,-6451.026,0
14584.049,-16825.209,-14983.134,-11044.153,-14919.834,-1428.902,-16990.053,-8902.945,-6453.597,0
14584.049,-16825.320,-14985.548,-11042.857,-14922.494,-1426.801,-16989.941,-8895.212,-6445.774,0
14584.049,-16821.297,-14980.631,-11037.492,-14917.085,-1427.561,-16984.465,-8895.413,-6446.333,0
14584.050,-16818.391,-14974.082,-11035.012,-14910.670,-1429.148,-16980.150,-8898.989,-6449.238,0
14584.050,-16815.195,-14968.695,-11036.106,-14911.005,-1428.165,-16979.055,-8898.521,-6443.807,0
14584.050,-16815.352,-14969.343,-11040.555,-14917.331,-1427.919,-16983.459,-8897.313,-6443.382,0
14584.050,-16816.090,-14972.740,-11044.578,-14920.482,-1429.305,-16986.633,-8898.431,-6445.885,0
14584.050,-16814.457,-14975.893,-11044.623,-14914.716,-1430.556,-16983.123,-8900.241,-6444.366,0
14584.108,-16811.865,-14970.685,-11042.410,-14907.071,-1431.026,-16978.139,-8904.577,-6446.221,0
14584.108,-16812.781,-14970.595,-11044.131,-14908.993,-1431.115,-16980.621,-8908.087,-6449.864,0
14584.108,-16813.250,-14970.550,-11045.428,-14914.626,-1429.036,-16983.348,-8906.053,-6449.797,0
14584.108,-16817.943,-14972.518,-11049.607,-14921.398,-1431.853,-16989.584,-8907.305,-6453.753,0
14584.108,-16814.301,-14969.209,-11043.550,-14915.118,-1431.897,-16986.029,-8907.595,-6452.055,0
14584.108,-16812.066,-14967.310,-11039.504,-14909.061,-1432.277,-16982.318,-8910.210,-6453.262,0
14584.108,-16814.256,-14969.053,-11041.583,-14911.810,-1431.674,-16984.174,-8910.903,-6457.017,0
14584.108,-16820.471,-14976.071,-11047.193,-14920.013,-1431.227,-16988.645,-8908.444,-6456.614,0
14584.109,-16823.645,-14979.401,-11048.467,-14923.835,-1430.825,-16988.354,-8902.521,-6447.338,0
14584.109,-16822.080,-14976.987,-11043.863,-14918.471,-1431.674,-16982.543,-8899.124,-6444.254,0
14584.109,-16821.342,-14974.082,-11042.499,-14912.480,-1432.121,-16977.982,-8901.292,-6448.791,0
14584.109,-16820.357,-14973.322,-11043.394,-14914.716,-1429.931,-16977.648,-8901.135,-6447.293,0
14584.109,-16821.006,-14975.312,-11046.344,-14922.628,-1429.036,-16982.230,-8899.861,-6445.438,0
14584.109,-16823.219,-14978.820,-11048.311,-14927.322,-1430.333,-16987.729,-8898.498,-6445.483,0
14584.109,-16818.771,-14975.199,-11043.416,-14920.281,-1430.288,-16983.258,-8895.927,-6444.097,0
14584.168,-16813.250,-14965.142,-11039.146,-14912.234,-1428.634,-16978.252,-8896.844,-6446.176,0
14584.168,-16814.078,-14965.812,-11041.181,-14914.358,-1425.862,-16978.363,-8896.464,-6444.746,0
14584.168,-16817.721,-14970.773,-11045.315,-14922.650,-1424.678,-16983.168,-8894.452,-6440.901,0
14584.168,-16818.258,-14975.378,-11047.060,-14925.758,-1425.259,-16986.633,-8893.223,-6439.672,0
14584.169,-16818.547,-14978.642,-11048.154,-14921.757,-1427.964,-16985.023,-8898.408,-6444.187,0
14584.169,-16815.643,-14973.858,-11045.227,-14913.285,-1427.226,-16977.670,-8901.828,-6446.377,0
14584.169,-16817.453,-14974.306,-11046.500,-14915.073,-1427.449,-16977.961,-8903.526,-6446.623,0
14584.169,-16819.777,-14977.211,-11050.501,-14922.963,-1426.824,-16982.141,-8902.342,-6443.829,0
14584.169,-16817.766,-14976.026,-11050.971,-14926.182,-1426.712,-16983.393,-8899.884,-6442.153,0
14584.170,-16813.898,-14971.132,-11047.171,-14921.398,-1427.092,-16978.318,-8898.654,-6442.689,0
14584.170,-16812.244,-14966.191,-11043.975,-14914.112,-1426.242,-16971.299,-8899.324,-6441.572,0
14584.170,-16814.391,-14968.114,-11046.657,-14916.861,-1425.237,-16971.254,-8898.096,-6438.219,0
14584.170,-16817.162,-14973.300,-11049.361,-14923.254,-1423.851,-16975.277,-8895.972,-6438.755,0
14584.170,-16819.732,-14979.491,-11051.507,-14928.193,-1426.086,-16980.396,-8894.698,-6442.309,0
14584.170,-16817.207,-14976.228,-11046.657,-14922.673,-1427.069,-16976.643,-8892.910,-6438.621,0
14584.228,-16814.592,-14972.115,-11042.343,-14915.118,-1426.019,-16970.070,-8892.910,-6435.380,0
14584.228,-16814.682,-14970.818,-11042.723,-14916.549,-1424.052,-16969.467,-8890.876,-6433.547,0
14584.229,-16816.559,-14971.132,-11046.075,-14923.857,-1424.968,-16974.473,-8890.741,-6436.118,0
14584.229,-16816.268,-14970.751,-11046.098,-14926.741,-1425.952,-16978.721,-8890.764,-6437.124,0
14584.229,-16815.709,-14971.802,-11043.147,-14921.354,-1426.958,-16975.994,-8890.921,-6435.000,0
14584.229,-16815.486,-14972.338,-11041.918,-14915.811,-1427.964,-16971.568,-8892.061,-6437.370,0
14584.229,-16815.195,-14972.159,-11041.561,-14917.935,-1426.846,-16972.707,-8890.652,-6440.633,0
14584.230,-16817.498,-14973.143,-11044.310,-14924.841,-1425.572,-16977.535,-8888.708,-6437.414,0
14584.230,-16819.955,-14973.411,-11046.836,-14927.926,-1426.220,-16980.889,-8888.708,-6433.011,0
14584.230,-16818.771,-14970.170,-11044.891,-14922.784,-1427.181,-16978.766,-8891.658,-6437.213,0
14584.230,-16816.469,-14965.700,-11042.969,-14915.587,-1427.047,-16973.602,-8894.810,-6439.895,0
14584.230,-16816.246,-14965.767,-11044.467,-14916.325,-1424.186,-16971.299,-8893.245,-6437.057,0
14584.230,-16820.873,-14974.864,-11049.049,-14925.087,-1424.343,-16976.730,-8891.390,-6434.330,0
14584.231,-16822.236,-14976.898,-11050.479,-14929.780,-1425.103,-16981.670,-8890.272,-6433.659,0
14584.231,-16816.895,-14970.707,-11045.695,-14924.126,-1426.399,-16978.027,-8890.160,-6434.844,0
14584.288,-16812.625,-14966.772,-11042.074,-14916.794,-1426.935,-16973.938,-8893.021,-6438.219,0
14584.288,-16810.568,-14966.527,-11042.589,-14917.264,-1426.019,-16973.893,-8892.843,-6437.302,0
14584.289,-16811.508,-14964.896,-11045.383,-14923.098,-1426.019,-16977.648,-8891.077,-6433.927,0
14584.289,-16813.027,-14965.655,-11045.562,-14926.204,-1425.907,-16980.777,-8888.216,-6433.145,0
14584.289,-16809.652,-14961.342,-11041.561,-14919.142,-1425.840,-16976.307,-8887.523,-6433.369,0
14584.289,-16804.957,-14955.149,-11037.828,-14910.424,-1425.371,-16970.473,-8890.720,-6433.659,0
14584.289,-16807.148,-14957.452,-11041.158,-14914.515,-1426.913,-16975.121,-8894.966,-6438.554,0
14584.289,-16810.658,-14962.861,-11043.684,-14922.002,-1427.360,-16980.174,-8893.692,-6437.235,0
14584.289,-16812.959,-14967.421,-11043.907,-14926.584,-1427.025,-16982.543,-8891.993,-6435.715,0
14584.289,-16811.283,-14965.186,-11041.694,-14921.488,-1427.382,-16979.189,-8893.894,-6437.146,0
14584.289,-16808.758,-14961.521,-11039.393,-14913.441,-1427.293,-16974.004,-8895.525,-6439.426,0
14584.289,-16810.389,-14965.879,-11041.471,-14916.190,-1427.919,-16976.730,-8895.324,-6440.655,0
14584.289,-16811.037,-14964.873,-11043.997,-14923.120,-1428.366,-16981.426,-8892.574,-6437.705,0
14584.289,-16814.145,-14965.543,-11048.557,-14927.144,-1428.724,-16984.062,-8892.529,-6436.654,0
14584.290,-16815.619,-14968.002,-11048.021,-14921.421,-1428.321,-16981.582,-8896.240,-6439.984,0
14584.349,-16813.586,-14968.695,-11045.025,-14913.218,-1428.455,-16977.893,-8901.001,-6444.209,0
14584.349,-16816.424,-14971.914,-11049.294,-14917.822,-1430.087,-16981.381,-8904.733,-6449.060,0
14584.349,-16821.342,-14977.859,-11054.949,-14926.540,-1430.892,-16988.086,-8904.242,-6448.389,0
14584.349,-16822.125,-14977.658,-11056.312,-14929.177,-1429.774,-16990.365,-8904.130,-6447.785,0
14584.349,-16819.441,-14972.227,-11052.759,-14922.807,-1428.478,-16986.768,-8905.852,-6449.842,0
14584.350,-16819.531,-14969.544,-11050.568,-14916.146,-1427.673,-16980.822,-8906.835,-6451.764,0
14584.350,-16822.303,-14970.886,-11052.849,-14919.499,-1427.047,-16980.643,-8906.566,-6451.451,0
14584.350,-16824.852,-14974.283,-11057.229,-14927.411,-1427.852,-16983.615,-8904.801,-6448.925,0
14584.350,-16825.789,-14977.703,-11058.660,-14930.630,-1429.126,-16985.648,-8901.896,-6446.936,0
14584.350,-16823.891,-14974.686,-11055.643,-14924.126,-1430.780,-16981.336,-8901.962,-6445.148,0
14584.351,-16820.850,-14968.718,-11052.044,-14915.989,-1430.713,-16976.754,-8905.852,-6446.936,0
14584.351,-16822.795,-14971.668,-11054.927,-14918.202,-1430.333,-16980.285,-8910.612,-6452.345,0
14584.351,-16826.750,-14978.508,-11060.313,-14927.188,-1430.914,-16986.588,-8911.953,-6451.272,0
14584.351,-16826.035,-14977.658,-11060.067,-14929.736,-1431.115,-16987.975,-8911.283,-6449.842,0
14584.351,-16821.275,-14972.941,-11054.122,-14922.069,-1431.137,-16983.727,-8912.333,-6453.820,0
14584.409,-16817.988,-14970.751,-11051.127,-14916.750,-1431.942,-16980.598,-8913.965,-6456.234,0
14584.409,-16818.771,-14972.518,-11053.094,-14919.633,-1432.188,-16981.961,-8914.010,-6456.100,0
14584.410,-16822.080,-14976.451,-11056.111,-14927.456,-1432.881,-16987.861,-8913.585,-6455.698,0
14584.410,-16824.092,-14978.820,-11058.324,-14932.352,-1434.155,-16991.037,-8911.663,-6449.842,0
14584.410,-16822.549,-14976.049,-11057.185,-14927.099,-1435.027,-16987.459,-8912.513,-6450.736,0
14584.410,-16817.631,-14966.527,-11053.898,-14918.493,-1434.490,-16981.268,-8915.262,-6453.865,0
14584.410,-16816.246,-14964.202,-11054.189,-14920.080,-1434.669,-16983.504,-8916.826,-6457.821,0
14584.410,-16820.717,-14971.444,-11057.899,-14928.395,-1435.049,-16988.912,-8915.865,-6456.301,0
14584.411,-16821.834,-14977.546,-11057.788,-14932.150,-1434.624,-16989.428,-8911.663,-6451.250,0
14584.411,-16818.168,-14972.562,-11053.966,-14925.668,-1433.283,-16983.996,-8909.182,-6447.964,0
14584.411,-16814.703,-14962.079,-11052.691,-14919.387,-1434.423,-16980.664,-8911.462,-6451.742,0
14584.411,-16814.814,-14960.224,-11056.357,-14921.734,-1434.982,-16983.660,-8912.735,-6455.162,0
14584.411,-16815.352,-14962.749,-11061.096,-14927.903,-1436.345,-16989.428,-8911.976,-6454.334,0
14584.412,-16813.854,-14965.275,-11061.118,-14929.646,-1437.776,-16991.908,-8910.590,-6453.172,0
14584.412,-16812.021,-14965.074,-11057.989,-14923.947,-1440.033,-16990.098,-8913.317,-6456.391,0
14584.468,-16809.986,-14959.620,-11055.441,-14917.688,-1441.419,-16987.861,-8918.391,-6461.219,0
14584.469,-16811.105,-14959.620,-11058.012,-14920.281,-1442.448,-16992.221,-8921.274,-6462.783,0
14584.469,-16814.189,-14966.125,-11061.432,-14926.875,-1441.397,-16997.809,-8918.726,-6460.571,0
14584.469,-16817.051,-14967.488,-11063.756,-14931.055,-1440.995,-17000.312,-8917.385,-6460.079,0
14584.469,-16815.709,-14965.521,-11061.029,-14926.405,-1441.330,-16996.266,-8918.927,-6462.582,0
14584.469,-16812.557,-14961.989,-11056.469,-14919.655,-1440.302,-16989.471,-8922.705,-6465.063,0
14584.470,-16813.742,-14962.771,-11056.916,-14922.159,-1440.436,-16990.344,-8924.381,-6466.069,0
14584.470,-16817.430,-14967.310,-11061.274,-14929.356,-1442.269,-16995.529,-8922.459,-6464.371,0
14584.470,-16817.273,-14969.164,-11061.789,-14931.792,-1442.202,-16995.998,-8919.821,-6461.487,0
14584.470,-16816.291,-14967.310,-11058.593,-14926.473,-1441.822,-16992.488,-8920.380,-6463.946,0
14584.470,-16817.408,-14966.438,-11056.312,-14921.488,-1441.933,-16988.711,-8923.018,-6466.271,0
14584.470,-16820.270,-14969.544,-11058.749,-14925.042,-1441.285,-16988.689,-8922.034,-6463.387,0
14584.471,-16824.180,-14975.021,-11062.013,-14932.664,-1439.832,-16993.205,-8918.614,-6462.716,0
14584.471,-16824.293,-14975.267,-11060.895,-14935.883,-1438.491,-16994.971,-8915.463,-6460.168,0
14584.471,-16819.375,-14969.902,-11055.865,-14929.267,-1438.357,-16990.143,-8914.613,-6456.502,0
14584.528,-16816.492,-14968.517,-11052.424,-14920.482,-1439.005,-16986.387,-8919.776,-6463.052,0
14584.528,-16819.934,-14971.399,-11055.039,-14922.963,-1438.894,-16988.422,-8919.799,-6462.314,0
14584.528,-16824.203,-14974.350,-11058.682,-14931.010,-1438.357,-16992.557,-8915.351,-6459.118,0
14584.528,-16827.533,-14977.435,-11060.046,-14934.743,-1437.038,-16991.707,-8909.651,-6452.770,0
14584.528,-16827.041,-14972.338,-11056.715,-14929.400,-1438.089,-16987.236,-8909.897,-6450.825,0
14584.529,-16824.426,-14967.555,-11053.697,-14921.712,-1438.402,-16982.766,-8911.842,-6455.229,0
14584.529,-16825.678,-14968.338,-11056.782,-14925.601,-1437.262,-16983.906,-8911.193,-6455.005,0
14584.529,-16826.191,-14969.566,-11058.302,-14932.307,-1435.474,-16986.387,-8908.377,-6449.663,0
14584.529,-16832.539,-14979.290,-11060.671,-14936.129,-1434.915,-16989.203,-8906.254,-6449.641,0
14584.529,-16834.775,-14984.252,-11058.235,-14930.474,-1434.401,-16986.969,-8907.595,-6451.652,0
14584.529,-16832.518,-14980.139,-11055.329,-14923.254,-1433.797,-16982.676,-8912.110,-6454.826,0
14584.529,-16835.803,-14981.838,-11059.375,-14928.082,-1434.893,-16986.699,-8917.877,-6462.493,0
14584.529,-16840.184,-14988.655,-11064.807,-14936.866,-1435.384,-16993.896,-8919.285,-6464.080,0
14584.529,-16839.223,-14989.929,-11062.817,-14937.000,-1433.373,-16994.166,-8916.982,-6462.090,0
14584.530,-16834.574,-14983.716,-11057.788,-14929.981,-1433.529,-16989.047,-8917.720,-6462.426,0
14584.588,-16832.250,-14977.591,-11055.329,-14923.388,-1435.295,-16985.738,-8922.727,-6466.852,0
14584.589,-16833.523,-14977.770,-11058.727,-14926.093,-1436.524,-16988.398,-8925.432,-6469.712,0
14584.589,-16835.088,-14982.575,-11061.319,-14931.100,-1435.340,-16991.641,-8919.933,-6463.610,0
14584.589,-16837.682,-14986.822,-11063.242,-14935.436,-1436.792,-16994.344,-8916.514,-6457.732,0
14584.589,-16834.350,-14985.303,-11058.660,-14929.691,-1436.457,-16989.494,-8914.926,-6457.709,0
14584.589,-16829.969,-14982.084,-11054.368,-14922.941,-1435.854,-16984.957,-8914.926,-6459.520,0
14584.590,-16831.154,-14983.291,-11056.045,-14926.540,-1434.133,-16986.297,-8911.462,-6455.430,0
14584.590,-16835.021,-14988.119,-11059.442,-14934.072,-1434.200,-16990.590,-8907.527,-6451.742,0
14584.590,-16836.854,-14991.807,-11058.235,-14936.464,-1434.848,-16991.930,-8905.650,-6449.171,0
14584.590,-16834.217,-14987.493,-11055.731,-14931.457,-1435.362,-16988.242,-8908.824,-6453.865,0
14584.590,-16831.355,-14982.844,-11053.697,-14924.640,-1433.775,-16981.559,-8909.606,-6454.268,0
14584.590,-16833.076,-14986.777,-11057.676,-14928.998,-1432.277,-16982.273,-8908.512,-6450.915,0
14584.591,-16833.031,-14984.900,-11057.609,-14934.452,-1431.316,-16986.252,-8904.376,-6444.947,0
14584.591,-16832.965,-14982.933,-11058.235,-14938.185,-1434.624,-16990.992,-8904.354,-6444.276,0
14584.591,-16829.857,-14978.642,-11057.341,-14933.469,-1438.156,-16989.785,-8907.192,-6448.143,0
14584.649,-16825.387,-14971.467,-11055.598,-14925.980,-1437.307,-16984.465,-8908.354,-6451.183,0
14584.649,-16827.377,-14975.557,-11058.615,-14929.714,-1436.390,-16986.611,-8907.975,-6452.188,0
14584.649,-16828.762,-14978.284,-11059.800,-14936.374,-1435.541,-16991.037,-8902.499,-6447.182,0
14584.649,-16830.887,-14979.625,-11062.393,-14940.935,-1437.463,-16993.809,-8901.672,-6445.282,0
14584.650,-16828.293,-14976.562,-11058.012,-14934.988,-1437.642,-16989.494,-8901.672,-6445.282,0
14584.650,-16827.266,-14973.076,-11055.419,-14928.932,-1437.463,-16985.270,-8905.695,-6450.423,0
14584.650,-16829.969,-14974.104,-11059.464,-14932.731,-1436.859,-16986.678,-8908.533,-6453.306,0
14584.650,-16832.271,-14977.233,-11063.756,-14938.811,-1436.815,-16991.885,-8908.399,-6452.099,0
14584.650,-16832.182,-14977.613,-11063.041,-14939.839,-1436.278,-16993.941,-8905.538,-6450.758,0
14584.650,-16831.646,-14977.256,-11061.364,-14934.206,-1437.508,-16991.125,-8910.836,-6454.982,0
14584.651,-16837.055,-14981.123,-11062.861,-14928.328,-1437.374,-16984.867,-8917.027,-6459.520,0
14584.651,-16845.102,-14986.934,-11067.958,-14933.804,-1438.469,-16986.119,-8918.436,-6460.414,0
14584.651,-16849.594,-14990.891,-11071.780,-14942.275,-1439.698,-16992.266,-8916.938,-6460.839,0
14584.651,-16853.484,-14994.243,-11073.792,-14946.008,-1441.620,-16996.512,-8918.145,-6462.940,0
14584.651,-16847.984,-14987.537,-11065.924,-14937.805,-1441.151,-16991.662,-8917.698,-6461.666,0
14584.709,-16845.816,-14984.386,-11061.163,-14930.786,-1439.989,-16987.146,-8918.949,-6464.281,0
14584.709,-16844.900,-14983.917,-11060.448,-14932.820,-1439.743,-16988.465,-8916.603,-6462.873,0
14584.709,-16845.727,-14986.554,-11062.772,-14939.102,-1439.184,-16990.746,-8910.657,-6454.066,0
14584.709,-16844.342,-14988.409,-11062.929,-14940.644,-1438.916,-16990.969,-8906.410,-6451.138,0
14584.709,-16836.832,-14982.821,-11059.486,-14933.603,-1440.838,-16987.705,-8907.729,-6453.664,0
14584.710,-16832.227,-14976.317,-11056.022,-14926.741,-1440.123,-16982.676,-8911.082,-6451.161,0
14584.710,-16833.256,-14975.602,-11058.437,-14929.669,-1439.385,-16985.516,-8911.641,-6455.385,0
14584.710,-16835.602,-14978.284,-11063.756,-14937.135,-1438.156,-16990.924,-8909.115,-6454.603,0
14584.710,-16836.406,-14980.787,-11065.768,-14940.040,-1438.402,-16994.254,-8908.578,-6450.400,0
14584.710,-16834.596,-14980.385,-11062.079,-14933.268,-1438.312,-16992.914,-8912.110,-6458.089,0
14584.710,-16830.975,-14975.780,-11058.861,-14925.758,-1439.028,-16989.539,-8917.251,-6462.895,0
14584.710,-16834.016,-14979.736,-11062.370,-14930.541,-1439.721,-16993.047,-8920.112,-6462.672,0
14584.710,-16839.178,-14986.085,-11068.048,-14938.476,-1440.123,-16999.574,-8921.341,-6463.767,0
14584.710,-16840.855,-14990.287,-11069.366,-14941.157,-1442.112,-17002.838,-8921.989,-6463.923,0
14584.711,-16839.357,-14987.046,-11064.717,-14934.922,-1442.738,-16999.127,-8922.615,-6466.002,0
14584.769,-16836.430,-14982.866,-11059.710,-14927.322,-1441.777,-16994.500,-8923.688,-6468.818,0
14584.770,-16837.658,-14982.039,-11061.677,-14931.188,-1441.911,-16996.869,-8924.738,-6470.919,0
14584.770,-16840.408,-14983.961,-11066.259,-14937.782,-1440.615,-17000.244,-8922.213,-6468.059,0
14584.770,-16839.424,-14979.401,-11068.048,-14939.615,-1441.084,-17001.117,-8922.481,-6466.114,0
14584.770,-16833.859,-14972.629,-11064.493,-14932.910,-1442.291,-16996.938,-8924.157,-6467.388,0
14584.770,-16831.043,-14970.126,-11061.432,-14925.959,-1440.615,-16991.461,-8924.851,-6468.975,0
14584.771,-16833.568,-14974.596,-11063.756,-14930.384,-1439.162,-16991.975,-8922.928,-6467.746,0
14584.771,-16834.865,-14978.709,-11066.640,-14936.978,-1437.843,-16995.842,-8919.486,-6463.164,0
14584.771,-16834.395,-14978.485,-11068.271,-14939.437,-1438.871,-16998.166,-8918.949,-6463.164,0
14584.771,-16828.605,-14970.997,-11064.896,-14933.514,-1440.771,-16994.344,-8919.509,-6463.901,0
14584.771,-16826.371,-14968.382,-11059.353,-14925.980,-1438.380,-16987.975,-8920.626,-6464.460,0
14584.771,-16835.736,-14979.446,-11062.772,-14931.591,-1437.687,-16990.344,-8920.112,-6465.555,0
14584.772,-16837.100,-14979.268,-11064.538,-14939.615,-1436.189,-16994.992,-8915.597,-6461.666,0
14584.772,-16835.379,-14979.938,-11064.248,-14942.477,-1436.792,-16997.473,-8913.898,-6458.447,0
14584.772,-16832.406,-14977.971,-11060.693,-14934.005,-1435.876,-16993.047,-8914.457,-6459.296,0
14584.830,-16830.527,-14976.474,-11059.285,-14927.255,-1436.368,-16989.025,-8917.050,-6460.481,0
14584.830,-16829.164,-14973.635,-11061.230,-14929.222,-1435.585,-16988.957,-8915.239,-6455.139,0
14584.830,-16831.266,-14974.573,-11064.896,-14937.135,-1436.032,-16994.098,-8912.333,-6451.764,0
14584.830,-16831.980,-14975.222,-11066.952,-14940.219,-1436.569,-16995.238,-8909.383,-6450.468,0
14584.830,-16830.238,-14972.674,-11064.068,-14933.849,-1436.412,-16990.836,-8909.763,-6452.748,0
14584.831,-16828.070,-14970.237,-11061.521,-14927.232,-1436.748,-16987.594,-8913.697,-6458.022,0
14584.831,-16827.980,-14972.182,-11063.264,-14929.445,-1436.904,-16992.176,-8914.814,-6461.353,0
14584.831,-16830.842,-14975.400,-11067.488,-14936.598,-1437.195,-16998.076,-8915.307,-6460.302,0
14584.831,-16831.936,-14977.233,-11069.009,-14938.587,-1437.329,-17000.021,-8915.730,-6458.894,0
14584.831,-16830.551,-14974.686,-11065.119,-14931.568,-1437.195,-16996.400,-8919.285,-6462.314,0
14584.832,-16832.049,-14972.986,-11063.600,-14925.534,-1437.642,-16993.070,-8923.800,-6467.455,0
14584.832,-16837.613,-14974.976,-11068.338,-14931.100,-1438.044,-16996.691,-8925.454,-6470.405,0
14584.832,-16844.654,-14983.179,-11073.166,-14940.890,-1437.485,-17002.592,-8923.062,-6468.595,0
14584.832,-16843.537,-14985.325,-11072.384,-14942.700,-1436.122,-17002.234,-8916.715,-6461.621,0
14584.832,-16837.883,-14979.558,-11066.215,-14934.743,-1435.854,-16995.037,-8915.016,-6458.358,0
14584.889,-16836.072,-14972.584,-11062.639,-14927.858,-1436.703,-16989.471,-8919.844,-6464.772,0
14584.889,-16840.609,-14976.116,-11066.706,-14932.217,-1436.859,-16992.602,-8921.408,-6464.236,0
14584.889,-16842.531,-14980.742,-11070.573,-14939.057,-1439.385,-16998.145,-8918.771,-6458.358,0
14584.889,-16841.637,-14982.799,-11068.606,-14940.130,-1440.391,-16998.859,-8915.597,-6455.027,0
14584.889,-16839.469,-14981.391,-11062.639,-14934.698,-1442.000,-16996.490,-8917.810,-6458.581,0
14584.890,-16838.150,-14980.161,-11057.431,-14928.484,-1442.403,-16993.383,-8920.045,-6461.241,0
14584.890,-16839.090,-14981.458,-11058.638,-14931.524,-1440.838,-16994.971,-8918.994,-6459.744,0
14584.890,-16841.057,-14983.626,-11062.951,-14938.521,-1440.190,-16998.301,-8916.871,-6456.234,0
14584.890,-16839.223,-14983.515,-11063.890,-14940.487,-1439.497,-16997.361,-8913.361,-6453.708,0
14584.890,-16835.379,-14982.688,-11062.861,-14935.368,-1440.123,-16993.092,-8915.932,-6459.028,0
14584.890,-16832.473,-14977.948,-11062.058,-14928.507,-1439.654,-16989.248,-8920.224,-6464.661,0
14584.890,-16831.154,-14974.484,-11065.499,-14931.681,-1440.279,-16991.326,-8920.402,-6463.052,0
14584.890,-16827.801,-14972.941,-11066.841,-14936.911,-1438.380,-16993.004,-8915.351,-6455.988,0
14584.890,-16826.750,-14973.970,-11068.159,-14938.498,-1439.631,-16994.367,-8914.926,-6454.446,0
14584.890,-16822.906,-14969.566,-11064.068,-14931.346,-1439.989,-16990.232,-8916.894,-6456.547,0
14584.949,-16817.340,-14962.414,-11060.895,-14924.863,-1440.548,-16986.008,-8921.743,-6460.347,0
14584.949,-16818.994,-14964.471,-11064.561,-14929.088,-1440.950,-16987.258,-8923.330,-6458.983,0
14584.949,-16824.023,-14969.544,-11069.276,-14937.895,-1441.933,-16992.488,-8922.973,-6455.988,0
14584.949,-16829.523,-14974.909,-11073.255,-14943.058,-1443.699,-16997.607,-8923.800,-6456.815,0
14584.950,-16828.629,-14971.892,-11070.908,-14936.598,-1443.833,-16993.271,-8923.196,-6457.263,0
14584.950,-16826.996,-14969.634,-11068.562,-14930.742,-1444.906,-16990.768,-8927.443,-6462.895,0
14584.950,-16829.254,-14972.227,-11069.857,-14935.458,-1445.197,-16994.746,-8929.231,-6465.019,0
14584.950,-16835.199,-14977.770,-11072.809,-14943.751,-1446.068,-17000.268,-8924.917,-6460.414,0
14584.950,-16840.967,-14985.369,-11073.523,-14948.311,-1446.940,-17003.375,-8922.995,-6460.995,0
14584.950,-16841.973,-14986.644,-11070.998,-14943.191,-1446.247,-16999.508,-8924.627,-6461.241,0
14584.951,-16841.234,-14985.660,-11069.500,-14937.537,-1446.538,-16996.311,-8927.868,-6463.633,0
14584.951,-16845.080,-14986.107,-11073.032,-14942.029,-1447.298,-17000.424,-8930.550,-6468.148,0
14584.951,-16850.131,-14989.236,-11075.870,-14949.227,-1446.963,-17004.627,-8928.896,-6466.069,0
14584.951,-16850.533,-14989.281,-11074.440,-14950.501,-1445.666,-17004.246,-8926.214,-6464.259,0
14584.951,-16850.555,-14989.594,-11072.696,-14946.455,-1446.739,-17001.273,-8927.310,-6467.701,0
14585.009,-16849.236,-14988.723,-11070.305,-14940.264,-1446.135,-16997.316,-8929.589,-6468.818,0
14585.009,-16853.326,-14994.578,-11075.870,-14946.433,-1447.052,-17001.363,-8933.344,-6472.171,0
14585.009,-16854.869,-14997.060,-11079.224,-14953.720,-1445.621,-17005.855,-8931.668,-6470.338,0
14585.009,-16852.566,-14993.640,-11079.111,-14956.356,-1446.314,-17006.637,-8929.679,-6469.980,0
14585.010,-16846.600,-14987.270,-11074.753,-14947.886,-1446.806,-17000.268,-8928.494,-6468.349,0
14585.010,-16849.461,-14987.493,-11075.938,-14941.896,-1446.359,-16996.021,-8930.506,-6465.979,0
14585.010,-16851.852,-14988.789,-11078.888,-14945.404,-1444.794,-16997.652,-8928.896,-6464.080,0
14585.010,-16852.410,-14992.701,-11080.766,-14953.250,-1445.688,-17002.793,-8925.477,-6460.325,0
14585.010,-16851.852,-14995.048,-11080.766,-14954.568,-1445.733,-17004.000,-8923.062,-6458.760,0
14585.011,-16848.588,-14992.008,-11075.312,-14946.075,-1444.549,-16998.076,-8921.944,-6458.157,0
14585.011,-16848.566,-14990.398,-11073.032,-14940.711,-1444.660,-16993.852,-8925.499,-6461.442,0
14585.011,-16852.254,-14995.696,-11075.490,-14946.209,-1444.169,-16995.305,-8924.225,-6459.609,0
14585.011,-16855.518,-15000.412,-11079.111,-14953.898,-1444.303,-16999.039,-8921.520,-6458.291,0
14585.011,-16856.926,-15001.463,-11082.263,-14956.625,-1445.264,-17001.340,-8921.185,-6459.431,0
14585.011,-16853.863,-14999.317,-11078.709,-14949.964,-1446.180,-16997.875,-8922.861,-6461.196,0
14585.069,-16850.914,-14992.299,-11075.603,-14943.013,-1447.365,-16995.418,-8926.706,-6463.141,0
14585.069,-16853.350,-14992.812,-11079.357,-14947.438,-1447.700,-16998.457,-8927.220,-6462.984,0
14585.069,-16856.725,-14995.696,-11085.079,-14955.731,-1448.907,-17004.180,-8925.253,-6460.593,0
14585.069,-16857.887,-15000.523,-11083.157,-14958.011,-1449.667,-17007.330,-8923.979,-6459.453,0
14585.069,-16856.322,-15000.904,-11078.664,-14951.774,-1449.555,-17004.670,-8927.488,-6462.806,0
14585.070,-16855.986,-15000.837,-11077.838,-14947.350,-1450.494,-17003.129,-8934.819,-6470.875,0
14585.070,-16857.619,-15003.251,-11081.525,-14950.747,-1448.594,-17004.246,-8936.585,-6472.864,0
14585.070,-16861.844,-15011.454,-11087.292,-14958.793,-1449.555,-17010.393,-8937.032,-6472.439,0
14585.070,-16863.832,-15016.506,-11089.818,-14962.057,-1453.109,-17015.086,-8937.613,-6474.071,0
14585.070,-16860.100,-15011.923,-11084.186,-14953.519,-1453.445,-17010.705,-8936.876,-6475.770,0
14585.070,-16855.674,-15008.102,-11078.754,-14946.433,-1452.908,-17005.789,-8937.144,-6477.133,0
14585.070,-16856.479,-15012.259,-11081.414,-14950.992,-1453.623,-17008.537,-8936.316,-6475.524,0
14585.070,-16858.914,-15015.388,-11083.202,-14956.446,-1453.333,-17012.158,-8933.143,-6471.076,0
14585.070,-16858.893,-15015.723,-11083.202,-14958.704,-1453.132,-17012.785,-8928.561,-6467.120,0
14585.070,-16853.686,-15011.700,-11077.972,-14951.686,-1453.355,-17008.492,-8929.098,-6468.707,0
14585.129,-16850.734,-15005.643,-11077.212,-14946.812,-1452.908,-17004.426,-8933.567,-6471.523,0
14585.130,-16851.092,-15005.978,-11081.213,-14950.501,-1452.372,-17006.236,-8933.434,-6472.037,0
14585.130,-16853.998,-15011.477,-11086.733,-14958.614,-1453.892,-17012.852,-8930.729,-6473.155,0
14585.130,-16854.646,-15012.259,-11085.929,-14960.224,-1451.992,-17013.410,-8928.472,-6470.092,0
14585.130,-16852.902,-15009.688,-11081.682,-14952.959,-1451.209,-17009.074,-8930.349,-6470.182,0
14585.130,-16852.320,-15008.683,-11078.888,-14946.209,-1449.824,-17003.330,-8932.830,-6470.293,0
14585.130,-16854.557,-15011.364,-11082.263,-14951.462,-1448.907,-17005.096,-8932.360,-6467.768,0
14585.130,-16857.596,-15015.455,-11086.130,-14959.173,-1447.298,-17010.594,-8929.119,-6467.522,0
14585.130,-16858.445,-15015.209,-11085.035,-14961.252,-1446.985,-17011.600,-8924.896,-6465.398,0
14585.130,-16857.061,-15010.292,-11079.850,-14954.770,-1448.393,-17007.576,-8927.957,-6468.505,0
14585.130,-16854.602,-15005.218,-11076.340,-14947.751,-1447.544,-17003.307,-8930.014,-6471.612,0
14585.130,-16857.328,-15009.554,-11079.066,-14951.909,-1446.516,-17004.426,-8929.075,-6470.562,0
14585.131,-16861.730,-15012.996,-11085.660,-14960.939,-1447.745,-17009.924,-8928.449,-6468.215,0
14585.131,-16862.424,-15011.454,-11086.778,-14963.174,-1448.639,-17011.221,-8927.220,-6465.868,0
14585.131,-16860.078,-15009.777,-11082.755,-14956.379,-1449.891,-17007.576,-8928.382,-6468.192,0
14585.190,-16858.803,-15009.286,-11079.604,-14951.060,-1451.120,-17004.514,-8930.863,-6472.171,0
14585.190,-16862.693,-15011.521,-11082.442,-14955.038,-1449.958,-17006.057,-8928.605,-6470.606,0
14585.190,-16869.666,-15016.707,-11087.538,-14962.638,-1448.795,-17009.900,-8925.141,-6467.298,0
14585.190,-16872.236,-15023.256,-11088.164,-14963.755,-1447.633,-17009.633,-8923.510,-6464.616,0
14585.191,-16870.896,-15020.350,-11086.331,-14958.033,-1448.862,-17005.029,-8927.376,-6465.510,0
14585.191,-16869.822,-15015.098,-11085.370,-14952.758,-1449.756,-17001.652,-8931.087,-6467.343,0
14585.191,-16870.561,-15017.779,-11087.516,-14956.536,-1450.494,-17006.570,-8931.221,-6468.215,0
14585.191,-16873.266,-15021.400,-11090.533,-14963.331,-1450.203,-17011.666,-8930.215,-6467.276,0
14585.191,-16873.377,-15024.105,-11092.254,-14964.984,-1450.181,-17013.074,-8929.365,-6466.516,0
14585.192,-16867.453,-15020.327,-11087.382,-14956.446,-1449.019,-17006.146,-8930.170,-6466.181,0
14585.192,-16865.195,-15017.734,-11085.951,-14950.702,-1448.125,-17001.318,-8933.389,-6469.198,0
14585.192,-16869.330,-15022.361,-11090.779,-14956.647,-1447.544,-17003.910,-8934.752,-6470.428,0
14585.192,-16872.527,-15022.361,-11092.992,-14962.749,-1445.308,-17006.369,-8930.371,-6467.343,0
14585.192,-16873.533,-15020.395,-11093.752,-14965.029,-1446.404,-17008.807,-8931.131,-6468.640,0
14585.192,-16868.615,-15016.997,-11088.678,-14957.206,-1445.644,-17002.949,-8931.869,-6468.416,0
14585.252,-16864.748,-15014.985,-11084.923,-14950.121,-1446.627,-17000.893,-8937.055,-6474.943,0
14585.252,-16865.150,-15018.450,-11088.678,-14954.681,-1448.214,-17005.273,-8937.077,-6474.831,0
14585.252,-16868.525,-15019.009,-11096.076,-14964.068,-1449.198,-17009.387,-8935.244,-6469.086,0
14585.252,-16867.342,-15018.159,-11095.696,-14964.717,-1449.265,-17009.365,-8932.562,-6466.740,0
14585.252,-16864.369,-15015.433,-11089.394,-14958.145,-1451.053,-17007.018,-8934.641,-6471.143,0
14585.252,-16862.133,-15011.208,-11083.247,-14951.618,-1452.014,-17005.141,-8937.144,-6476.820,0
14585.252,-16862.760,-15010.828,-11085.481,-14955.083,-1452.439,-17010.416,-8936.585,-6478.899,0
14585.252,-16865.174,-15015.924,-11087.226,-14961.944,-1451.120,-17015.578,-8933.791,-6476.083,0
14585.252,-16863.922,-15016.796,-11086.443,-14963.912,-1450.539,-17015.199,-8933.567,-6473.423,0
14585.252,-16858.311,-15010.672,-11081.458,-14956.916,-1451.567,-17011.510,-8934.707,-6475.546,0
14585.252,-16859.184,-15009.510,-11081.905,-14951.909,-1452.953,-17008.918,-8940.184,-6480.307,0
14585.253,-16868.951,-15018.830,-11090.042,-14957.810,-1453.556,-17012.873,-8941.279,-6481.335,0
14585.253,-16874.494,-15025.759,-11094.803,-14965.834,-1453.556,-17018.059,-8938.373,-6475.725,0
14585.253,-16874.203,-15026.832,-11093.461,-14966.661,-1453.020,-17019.266,-8936.518,-6473.423,0
14585.253,-16872.527,-15024.262,-11089.460,-14959.509,-1452.998,-17013.768,-8936.764,-6474.161,0
14585.309,-16874.494,-15024.217,-11091.494,-14954.591,-1452.774,-17009.521,-8941.569,-6477.357,0
14585.310,-16876.953,-15026.943,-11096.300,-14958.682,-1452.685,-17012.516,-8941.771,-6478.005,0
14585.310,-16881.043,-15032.822,-11101.441,-14966.415,-1451.992,-17017.500,-8940.452,-6475.613,0
14585.310,-16881.154,-15035.840,-11100.614,-14967.533,-1449.824,-17017.412,-8937.613,-6473.378,0
14585.310,-16875.836,-15028.240,-11095.651,-14961.453,-1451.008,-17014.752,-8938.820,-6475.703,0
14585.311,-16872.059,-15019.769,-11093.797,-14955.843,-1450.539,-17011.756,-8944.117,-6479.436,0
14585.311,-16875.566,-15024.328,-11098.848,-14961.743,-1451.276,-17015.467,-8945.905,-6481.022,0
14585.311,-16876.350,-15026.943,-11101.083,-14968.069,-1450.293,-17018.887,-8942.240,-6481.201,0
14585.311,-16875.545,-15028.017,-11100.234,-14969.566,-1449.935,-17018.217,-8939.268,-6476.061,0
14585.311,-16870.896,-15022.987,-11094.444,-14962.012,-1448.348,-17012.182,-8937.322,-6472.618,0
14585.311,-16870.270,-15019.031,-11093.327,-14957.475,-1447.790,-17008.717,-8939.401,-6475.032,0
14585.312,-16871.365,-15020.283,-11094.690,-14961.342,-1446.985,-17011.377,-8939.066,-6477.513,0
14585.312,-16872.080,-15021.937,-11096.568,-14967.398,-1446.337,-17014.572,-8933.836,-6473.110,0
14585.312,-16870.963,-15018.785,-11096.233,-14969.388,-1447.074,-17014.371,-8928.985,-6469.847,0
14585.312,-16863.943,-15010.896,-11089.326,-14960.447,-1447.477,-17007.756,-8925.432,-6467.321,0
14585.369,-16861.127,-15007.989,-11085.526,-14953.786,-1447.499,-17003.061,-8926.482,-6468.349,0
14585.369,-16863.967,-15013.823,-11086.823,-14958.257,-1448.102,-17007.240,-8927.979,-6470.651,0
14585.370,-16866.873,-15013.421,-11089.125,-14965.588,-1449.891,-17012.227,-8927.488,-6469.869,0
14585.370,-16867.766,-15013.532,-11089.595,-14966.505,-1450.986,-17012.896,-8925.588,-6468.461,0
14585.370,-16866.111,-15010.672,-11085.884,-14959.150,-1451.768,-17008.582,-8928.314,-6470.696,0
14585.370,-16866.895,-15009.777,-11083.895,-14955.149,-1452.908,-17007.018,-8934.126,-6474.004,0
14585.370,-16868.906,-15012.080,-11087.694,-14959.285,-1451.500,-17009.498,-8933.813,-6472.395,0
14585.371,-16872.104,-15015.701,-11092.656,-14966.907,-1453.176,-17015.846,-8933.590,-6472.261,0
14585.371,-16874.137,-15019.791,-11095.518,-14970.282,-1456.149,-17019.266,-8935.758,-6475.099,0
14585.371,-16870.672,-15016.662,-11092.143,-14962.369,-1455.255,-17013.746,-8939.290,-6478.765,0
14585.371,-16869.287,-15015.030,-11091.405,-14956.938,-1454.853,-17010.215,-8942.218,-6479.681,0
14585.371,-16871.633,-15015.946,-11097.843,-14962.816,-1456.172,-17013.857,-8943.045,-6478.743,0
14585.372,-16873.912,-15017.288,-11100.703,-14968.829,-1454.763,-17017.857,-8941.279,-6476.574,0
14585.372,-16873.711,-15017.176,-11100.234,-14969.656,-1455.031,-17021.412,-8942.643,-6480.531,0
14585.372,-16874.025,-15017.601,-11098.982,-14963.979,-1455.031,-17018.662,-8945.102,-6483.302,0
14585.430,-16876.662,-15018.718,-11100.637,-14961.363,-1455.255,-17016.809,-8948.454,-6484.308,0
14585.430,-16878.227,-15021.646,-11101.374,-14965.879,-1453.959,-17019.467,-8945.057,-6483.101,0
14585.430,-16875.857,-15022.540,-11100.100,-14970.550,-1451.254,-17020.607,-8937.412,-6477.312,0
14585.430,-16874.338,-15023.971,-11099.385,-14971.266,-1451.925,-17019.893,-8935.534,-6475.680,0
14585.430,-16871.299,-15019.344,-11096.591,-14965.298,-1454.830,-17017.389,-8938.798,-6479.525,0
14585.430,-16866.381,-15010.516,-11090.980,-14959.062,-1453.579,-17012.182,-8938.172,-6479.569,0
14585.430,-16870.494,-15019.232,-11090.958,-14963.554,-1452.036,-17014.035,-8937.211,-6478.497,0
14585.430,-16878.025,-15032.309,-11094.981,-14971.399,-1452.618,-17020.139,-8936.004,-6478.586,0
14585.430,-16877.445,-15033.135,-11092.299,-14971.333,-1452.796,-17020.652,-8931.467,-6476.574,0
14585.431,-16872.260,-15026.362,-11084.342,-14962.950,-1452.193,-17014.998,-8930.192,-6474.674,0
14585.431,-16870.807,-15025.625,-11080.922,-14958.279,-1451.746,-17011.287,-8930.908,-6475.122,0
14585.431,-16874.830,-15027.682,-11082.777,-14963.062,-1449.108,-17010.729,-8926.862,-6469.869,0
14585.431,-16878.809,-15030.252,-11085.415,-14970.215,-1449.309,-17015.645,-8923.644,-6466.136,0
14585.431,-16881.311,-15032.107,-11086.532,-14972.830,-1451.209,-17016.875,-8923.711,-6466.002,0
14585.431,-16880.373,-15032.264,-11083.247,-14965.454,-1451.500,-17010.951,-8926.885,-6468.528,0
14585.490,-16881.512,-15035.259,-11082.129,-14960.380,-1450.472,-17006.414,-8930.438,-6469.243,0
14585.490,-16884.352,-15036.510,-11086.711,-14965.298,-1450.852,-17009.252,-8932.718,-6470.606,0
14585.490,-16887.324,-15045.675,-11089.862,-14972.115,-1449.980,-17013.857,-8930.572,-6470.472,0
14585.490,-16888.396,-15048.401,-11092.791,-14975.199,-1451.835,-17016.271,-8930.751,-6470.875,0
14585.490,-16885.625,-15042.858,-11089.841,-14967.756,-1452.103,-17011.377,-8933.522,-6470.785,0
14585.490,-16883.145,-15036.152,-11088.052,-14960.961,-1450.092,-17007.600,-8935.848,-6472.216,0
14585.491,-16889.402,-15040.444,-11094.713,-14968.315,-1451.008,-17014.236,-8937.703,-6475.881,0
14585.491,-16890.855,-15043.171,-11097.082,-14974.462,-1448.862,-17017.545,-8933.791,-6471.523,0
14585.491,-16889.514,-15047.172,-11096.277,-14974.819,-1449.846,-17019.244,-8932.964,-6472.104,0
14585.491,-16886.877,-15041.986,-11093.998,-14967.220,-1451.075,-17015.086,-8937.077,-6477.156,0
14585.491,-16884.977,-15035.259,-11092.254,-14962.102,-1451.634,-17012.449,-8941.524,-6479.905,0
14585.491,-16886.340,-15035.438,-11092.478,-14966.281,-1451.366,-17015.713,-8938.529,-6478.430,0
14585.491,-16887.682,-15036.622,-11092.857,-14972.763,-1451.858,-17021.076,-8935.199,-6476.239,0
14585.491,-16885.178,-15036.488,-11091.874,-14973.344,-1453.377,-17021.211,-8931.623,-6472.060,0
14585.491,-16877.289,-15029.737,-11085.549,-14964.180,-1453.892,-17015.199,-8930.260,-6471.277,0
14585.550,-16871.299,-15023.993,-11080.788,-14959.039,-1455.702,-17012.383,-8931.757,-6473.467,0
14585.550,-16869.062,-15021.534,-11081.525,-14962.235,-1454.920,-17014.014,-8930.572,-6469.735,0
14585.550,-16867.945,-15022.429,-11082.688,-14968.338,-1454.741,-17016.316,-8925.655,-6465.220,0
14585.551,-16863.117,-15020.507,-11080.967,-14968.494,-1455.814,-17014.438,-8921.855,-6460.883,0
14585.551,-16854.803,-15013.041,-11075.781,-14959.934,-1458.138,-17009.768,-8922.280,-6459.475,0
14585.551,-16848.945,-15004.212,-11072.942,-14954.256,-1458.362,-17006.928,-8923.510,-6461.397,0
14585.551,-16846.510,-15003.362,-11071.177,-14956.603,-1455.970,-17006.973,-8917.653,-6458.179,0
14585.551,-16850.266,-15009.085,-11072.854,-14964.649,-1456.820,-17014.014,-8916.044,-6458.000,0
14585.552,-16848.141,-15005.933,-11071.534,-14964.403,-1455.568,-17014.281,-8914.770,-6457.240,0
14585.552,-16847.561,-15004.368,-11068.896,-14958.056,-1455.434,-17010.527,-8914.792,-6459.185,0
14585.552,-16848.186,-15002.759,-11069.120,-14952.981,-1454.093,-17007.375,-8916.089,-6464.303,0
14585.552,-16853.350,-15007.564,-11073.412,-14959.509,-1452.618,-17011.197,-8918.480,-6469.735,0
14585.552,-16858.826,-15013.488,-11077.994,-14967.868,-1449.376,-17014.684,-8919.106,-6464.236,0
14585.553,-16859.965,-15014.896,-11080.006,-14969.209,-1448.326,-17014.014,-8918.838,-6461.353,0
14585.553,-16859.406,-15012.460,-11078.799,-14963.599,-1450.025,-17009.990,-8924.560,-6465.823,0
14585.610,-16860.055,-15012.035,-11079.626,-14958.793,-1449.980,-17006.795,-8932.629,-6471.143,0
14585.611,-16863.139,-15016.371,-11084.387,-14963.644,-1450.651,-17010.617,-8936.361,-6474.451,0
14585.611,-16866.201,-15023.121,-11088.634,-14971.243,-1452.662,-17015.176,-8934.686,-6473.602,0
14585.611,-16865.018,-15019.992,-11088.343,-14971.333,-1454.696,-17015.803,-8934.729,-6472.372,0
14585.611,-16862.268,-15018.674,-11084.319,-14963.241,-1456.037,-17011.600,-8937.100,-6472.484,0
14585.611,-16861.574,-15017.713,-11083.492,-14958.011,-1456.529,-17009.588,-8941.703,-6478.586,0
14585.612,-16865.598,-15020.171,-11087.448,-14964.314,-1456.417,-17013.656,-8941.726,-6477.826,0
14585.612,-16871.588,-15025.245,-11092.656,-14972.473,-1456.015,-17018.863,-8941.302,-6474.943,0
14585.612,-16873.197,-15027.436,-11091.227,-14973.076,-1455.859,-17019.893,-8939.625,-6472.931,0
14585.612,-16870.828,-15021.423,-11087.226,-14966.146,-1456.417,-17015.287,-8939.915,-6474.183,0
14585.612,-16867.141,-15013.197,-11082.979,-14959.150,-1455.680,-17009.365,-8937.926,-6472.060,0
14585.613,-16871.141,-15018.941,-11084.945,-14963.174,-1454.964,-17012.873,-8936.429,-6472.216,0
14585.613,-16880.193,-15033.313,-11089.394,-14971.221,-1455.031,-17019.758,-8934.327,-6471.188,0
14585.613,-16880.887,-15034.923,-11087.940,-14972.025,-1455.523,-17020.674,-8931.108,-6469.623,0
14585.613,-16877.734,-15030.632,-11084.073,-14965.074,-1457.200,-17016.160,-8932.919,-6471.880,0
14585.671,-16874.918,-15028.062,-11080.273,-14957.765,-1455.367,-17009.387,-8931.108,-6470.853,0
14585.671,-16877.691,-15029.335,-11082.509,-14962.660,-1454.070,-17011.533,-8928.136,-6468.572,0
14585.671,-16881.938,-15032.309,-11085.728,-14969.790,-1452.036,-17015.064,-8925.298,-6463.588,0
14585.671,-16883.322,-15033.091,-11086.242,-14971.467,-1451.545,-17014.908,-8923.666,-6461.777,0
14585.671,-16880.619,-15028.620,-11081.883,-14964.136,-1450.159,-17008.359,-8924.672,-6463.365,0
14585.671,-16880.641,-15030.520,-11079.715,-14959.441,-1450.695,-17007.174,-8929.521,-6468.014,0
14585.671,-16883.166,-15032.018,-11083.269,-14964.136,-1451.679,-17013.074,-8935.154,-6474.541,0
14585.671,-16885.268,-15032.040,-11086.688,-14971.221,-1450.807,-17016.650,-8933.925,-6471.299,0
14585.671,-16886.027,-15033.001,-11087.739,-14973.992,-1451.746,-17017.434,-8933.120,-6470.338,0
14585.671,-16879.859,-15028.710,-11084.274,-14966.930,-1452.461,-17013.299,-8936.026,-6473.624,0
14585.672,-16875.611,-15028.955,-11082.777,-14961.408,-1452.595,-17010.281,-8937.301,-6474.652,0
14585.672,-16878.496,-15031.057,-11087.158,-14966.482,-1452.819,-17013.947,-8936.898,-6475.256,0
14585.672,-16881.178,-15031.369,-11090.623,-14973.523,-1453.869,-17018.953,-8935.289,-6474.049,0
14585.672,-16880.908,-15031.414,-11092.232,-14975.691,-1456.507,-17021.592,-8935.199,-6474.004,0
14585.672,-16873.041,-15024.463,-11086.152,-14966.304,-1456.753,-17017.479,-8939.155,-6481.380,0
14585.730,-16868.123,-15019.321,-11083.381,-14961.051,-1458.518,-17015.689,-8945.034,-6487.370,0
14585.730,-16870.783,-15023.345,-11086.197,-14966.661,-1461.178,-17020.361,-8945.414,-6485.269,0
14585.730,-16871.969,-15027.569,-11087.359,-14972.473,-1461.692,-17025.928,-8944.207,-6485.538,0
14585.730,-16870.314,-15027.838,-11087.493,-14972.115,-1463.011,-17027.180,-8942.307,-6485.336,0
14585.730,-16866.291,-15026.251,-11084.274,-14963.621,-1463.726,-17022.217,-8943.402,-6483.213,0
14585.730,-16863.162,-15022.630,-11082.576,-14959.419,-1464.464,-17020.250,-8946.979,-6486.856,0
14585.730,-16864.504,-15023.971,-11083.604,-14964.604,-1462.519,-17021.635,-8944.252,-6483.906,0
14585.731,-16866.180,-15030.721,-11085.929,-14971.958,-1460.888,-17025.369,-8939.379,-6479.502,0
14585.731,-16865.531,-15030.743,-11086.309,-14972.450,-1460.329,-17026.150,-8937.948,-6478.944,0
14585.731,-16864.324,-15026.005,-11083.090,-14965.521,-1460.150,-17021.904,-8940.988,-6481.715,0
14585.731,-16864.324,-15024.127,-11081.525,-14961.833,-1459.189,-17019.154,-8943.895,-6485.381,0
14585.731,-16867.207,-15025.491,-11085.683,-14967.891,-1458.988,-17023.402,-8944.944,-6486.633,0
14585.731,-16869.666,-15028.889,-11089.862,-14975.133,-1458.049,-17028.990,-8943.559,-6488.645,0
14585.731,-16869.801,-15030.743,-11090.779,-14976.675,-1457.513,-17028.609,-8942.799,-6485.158,0
14585.731,-16868.324,-15029.693,-11088.275,-14970.282,-1458.161,-17024.250,-8947.783,-6489.292,0
14585.790,-16865.307,-15023.301,-11085.415,-14964.940,-1458.228,-17021.457,-8950.711,-6493.271,0
14585.790,-16866.447,-15026.988,-11086.711,-14968.852,-1457.736,-17024.676,-8949.325,-6489.427,0
14585.790,-16869.689,-15029.983,-11089.640,-14975.915,-1458.138,-17029.369,-8947.716,-6487.862,0
14585.790,-16869.531,-15027.994,-11088.365,-14975.177,-1457.870,-17028.387,-8946.375,-6485.895,0
14585.790,-16869.242,-15026.631,-11084.722,-14968.517,-1460.262,-17024.139,-8949.951,-6490.343,0
14585.790,-16869.801,-15026.095,-11082.129,-14962.950,-1459.882,-17019.334,-8950.846,-6492.757,0
14585.790,-16872.348,-15029.357,-11082.353,-14967.600,-1457.982,-17019.893,-8945.392,-6486.052,0
14585.790,-16872.996,-15030.229,-11083.157,-14974.350,-1457.177,-17022.463,-8939.379,-6481.648,0
14585.790,-16874.740,-15033.270,-11083.135,-14976.250,-1457.580,-17022.598,-8936.697,-6479.033,0
14585.791,-16872.885,-15030.967,-11078.933,-14969.566,-1458.697,-17017.992,-8940.407,-6479.436,0
14585.791,-16873.578,-15028.799,-11080.140,-14966.729,-1460.262,-17016.248,-8946.509,-6482.431,0
14585.791,-16875.723,-15032.264,-11081.794,-14969.991,-1457.982,-17019.602,-8945.660,-6483.392,0
14585.791,-16882.184,-15038.299,-11085.639,-14977.367,-1456.998,-17022.955,-8941.838,-6481.514,0
14585.791,-16882.295,-15035.124,-11084.543,-14977.367,-1455.814,-17020.316,-8936.607,-6477.804,0
14585.791,-16878.607,-15027.503,-11079.066,-14969.544,-1455.121,-17015.422,-8936.809,-6479.681,0
14585.850,-16877.734,-15027.659,-11076.563,-14964.962,-1455.814,-17012.740,-8938.775,-6481.850,0
14585.850,-16881.133,-15033.292,-11079.380,-14970.349,-1456.172,-17016.338,-8938.954,-6475.814,0
14585.850,-16883.658,-15037.650,-11083.225,-14976.496,-1456.261,-17020.764,-8937.591,-6472.060,0
14585.850,-16883.682,-15038.521,-11084.387,-14977.144,-1458.496,-17023.469,-8938.440,-6473.981,0
14585.850,-16880.664,-15034.945,-11081.593,-14969.321,-1460.642,-17019.869,-8942.263,-6479.011,0
14585.850,-16878.271,-15028.396,-11080.899,-14964.157,-1461.759,-17016.160,-8946.644,-6484.219,0
14585.850,-16878.941,-15031.459,-11083.202,-14967.756,-1459.211,-17016.852,-8945.369,-6481.604,0
14585.851,-16881.490,-15033.247,-11088.052,-14974.797,-1458.474,-17020.340,-8941.346,-6477.692,0
14585.851,-16881.355,-15034.990,-11087.404,-14975.244,-1458.921,-17020.652,-8938.909,-6475.680,0
14585.851,-16878.674,-15033.381,-11082.911,-14969.053,-1462.720,-17019.311,-8944.207,-6481.022,0
14585.851,-16875.389,-15025.804,-11079.670,-14963.688,-1463.793,-17017.121,-8947.493,-6485.225,0
14585.851,-16877.064,-15027.458,-11083.895,-14969.679,-1464.464,-17021.346,-8948.655,-6486.163,0
14585.851,-16878.473,-15030.140,-11087.493,-14974.708,-1462.676,-17024.475,-8946.196,-6483.705,0
14585.851,-16880.061,-15035.103,-11089.014,-14976.205,-1462.005,-17024.475,-8943.737,-6482.274,0
14585.851,-16876.193,-15031.012,-11084.387,-14968.114,-1460.731,-17017.725,-8942.688,-6482.140,0
14585.910,-16873.242,-15028.754,-11082.106,-14964.292,-1459.837,-17014.215,-8944.520,-6482.587,0
14585.910,-16874.025,-15028.889,-11083.828,-14967.712,-1458.429,-17016.965,-8943.895,-6480.799,0
14585.910,-16876.082,-15032.129,-11088.410,-14974.350,-1458.317,-17021.703,-8941.480,-6478.675,0
14585.910,-16874.762,-15032.241,-11089.482,-14977.055,-1460.374,-17023.848,-8940.497,-6479.614,0
14585.911,-16870.180,-15029.357,-11084.990,-14969.679,-1460.619,-17020.229,-8941.323,-6480.732,0
14585.911,-16871.902,-15033.873,-11082.822,-14965.320,-1459.569,-17017.143,-8943.470,-6479.659,0
14585.911,-16874.674,-15036.152,-11085.974,-14970.796,-1458.943,-17021.100,-8943.872,-6479.726,0
14585.911,-16877.043,-15037.739,-11088.589,-14978.038,-1458.496,-17024.049,-8939.781,-6474.429,0
14585.911,-16875.723,-15035.325,-11087.382,-14978.463,-1457.982,-17021.971,-8936.138,-6471.903,0
14585.911,-16871.744,-15032.688,-11082.084,-14969.768,-1457.848,-17016.562,-8937.256,-6472.350,0
14585.911,-16869.689,-15032.040,-11078.083,-14964.314,-1457.490,-17013.344,-8940.296,-6473.155,0
14585.911,-16873.533,-15037.918,-11082.599,-14970.349,-1457.870,-17016.695,-8938.730,-6470.070,0
14585.911,-16876.037,-15036.891,-11087.002,-14976.585,-1457.736,-17021.793,-8936.339,-6468.148,0
14585.911,-16876.998,-15037.002,-11086.510,-14976.295,-1458.764,-17022.977,-8935.848,-6468.908,0
14585.911,-16874.271,-15033.225,-11082.106,-14968.226,-1459.077,-17018.193,-8939.155,-6473.557,0
14585.971,-16873.980,-15028.329,-11082.509,-14966.191,-1459.055,-17014.908,-8943.179,-6479.368,0
14585.971,-16877.400,-15029.737,-11087.270,-14973.143,-1459.927,-17018.977,-8943.983,-6478.631,0
14585.971,-16881.646,-15033.917,-11090.422,-14980.206,-1460.329,-17025.189,-8943.447,-6478.117,0
14585.971,-16885.090,-15038.768,-11091.428,-14981.391,-1459.882,-17025.816,-8943.492,-6478.497,0
14585.971,-16885.334,-15037.963,-11088.634,-14974.976,-1460.374,-17021.367,-8947.493,-6482.654,0
14585.971,-16886.184,-15038.008,-11088.074,-14972.204,-1460.821,-17018.775,-8951.538,-6487.236,0
14585.971,-16888.709,-15040.668,-11091.517,-14976.942,-1460.105,-17022.037,-8951.248,-6489.203,0
14585.971,-16892.510,-15045.876,-11096.903,-14984.118,-1460.999,-17029.615,-8950.130,-6493.115,0
14585.971,-16893.248,-15049.787,-11098.088,-14984.453,-1462.005,-17031.291,-8948.655,-6494.657,0
14585.971,-16890.766,-15042.522,-11093.327,-14976.764,-1462.296,-17026.486,-8951.628,-6492.578,0
14585.971,-16889.381,-15036.957,-11090.980,-14972.986,-1462.184,-17023.402,-8953.952,-6490.768,0
14585.972,-16892.330,-15039.237,-11092.992,-14978.888,-1464.062,-17029.123,-8954.467,-6494.456,0
14585.972,-16893.449,-15040.892,-11094.311,-14983.648,-1464.062,-17033.951,-8954.757,-6495.283,0
14585.972,-16893.203,-15040.243,-11095.249,-14984.855,-1466.319,-17035.650,-8957.261,-6496.333,0
14585.972,-16887.547,-15031.816,-11088.477,-14975.312,-1464.263,-17028.006,-8955.629,-6495.171,0
14585.972,-16887.145,-15027.704,-11086.421,-14971.690,-1463.860,-17024.072,-8957.931,-6496.244,0
14586.032,-16889.000,-15029.805,-11088.856,-14976.809,-1463.257,-17026.910,-8956.881,-6495.171,0
14586.032,-16891.504,-15035.885,-11090.488,-14983.380,-1462.609,-17031.693,-8951.852,-6490.097,0
14586.032,-16889.850,-15036.152,-11088.365,-14982.575,-1462.855,-17030.979,-8946.979,-6483.906,0
14586.032,-16886.943,-15031.235,-11084.073,-14974.887,-1462.720,-17025.123,-8946.106,-6484.018,0
14586.032,-16885.648,-15030.564,-11082.486,-14970.952,-1461.983,-17022.439,-8947.247,-6487.080,0
14586.032,-16887.660,-15031.749,-11086.443,-14976.071,-1461.156,-17026.531,-8945.727,-6486.588,0
14586.032,-16890.297,-15037.382,-11090.623,-14983.581,-1460.932,-17031.225,-8943.850,-6484.174,0
14586.032,-16891.348,-15037.784,-11092.031,-14984.140,-1460.865,-17030.934,-8942.173,-6483.168,0
14586.032,-16886.988,-15031.928,-11086.935,-14974.864,-1459.502,-17023.514,-8943.983,-6482.587,0
14586.033,-16884.910,-15029.805,-11085.549,-14970.751,-1459.770,-17019.713,-8947.270,-6483.794,0
14586.033,-16886.586,-15033.873,-11089.192,-14976.384,-1460.485,-17023.178,-8946.979,-6482.877,0
14586.033,-16884.486,-15034.901,-11090.646,-14982.911,-1461.849,-17027.201,-8944.878,-6479.547,0
14586.033,-16883.770,-15032.800,-11091.025,-14982.754,-1463.682,-17026.844,-8943.291,-6477.692,0
14586.033,-16884.307,-15031.303,-11092.299,-14976.585,-1465.984,-17022.664,-8947.202,-6482.386,0
14586.033,-16883.658,-15028.575,-11091.472,-14973.121,-1465.693,-17018.148,-8949.996,-6483.928,0
14586.091,-16886.988,-15030.140,-11094.914,-14978.753,-1464.509,-17019.736,-8948.052,-6480.888,0
14586.091,-16890.408,-15033.471,-11098.893,-14985.325,-1463.011,-17022.396,-8944.878,-6478.251,0
14586.092,-16893.807,-15036.354,-11100.346,-14986.934,-1463.503,-17021.926,-8945.168,-6478.675,0
14586.092,-16891.684,-15032.040,-11096.636,-14978.731,-1462.296,-17015.154,-8945.771,-6477.156,0
14586.092,-16891.191,-15027.480,-11096.345,-14974.932,-1462.944,-17013.834,-8949.438,-6482.989,0
14586.092,-16892.822,-15026.608,-11098.646,-14978.284,-1461.938,-17016.875,-8948.767,-6483.168,0
14586.092,-16896.467,-15029.693,-11103.318,-14985.437,-1462.184,-17020.562,-8946.956,-6477.178,0
14586.092,-16893.248,-15026.407,-11100.413,-14984.363,-1461.178,-17018.574,-8941.614,-6474.250,0
14586.092,-16890.453,-15021.513,-11095.607,-14977.100,-1461.514,-17013.389,-8943.357,-6478.295,0
14586.092,-16889.225,-15019.456,-11094.646,-14972.941,-1461.491,-17011.041,-8947.202,-6480.933,0
14586.092,-16893.293,-15022.094,-11099.430,-14978.820,-1460.776,-17014.729,-8947.896,-6479.614,0
14586.092,-16897.113,-15027.682,-11102.983,-14986.040,-1459.748,-17018.662,-8947.828,-6480.240,0
14586.092,-16896.711,-15027.503,-11102.312,-14986.934,-1460.374,-17018.439,-8947.448,-6478.921,0
14586.092,-16895.260,-15023.367,-11099.563,-14980.095,-1462.855,-17012.852,-8949.325,-6477.781,0
14586.093,-16894.723,-15020.686,-11098.804,-14976.652,-1462.855,-17010.057,-8952.723,-6481.469,0
14586.151,-16894.945,-15022.094,-11101.284,-14981.302,-1462.385,-17012.963,-8950.421,-6479.659,0
14586.151,-16895.527,-15026.095,-11103.050,-14988.029,-1464.017,-17019.355,-8948.097,-6478.251,0
14586.152,-16894.275,-15026.676,-11103.251,-14988.097,-1466.051,-17023.000,-8949.862,-6482.877,0
14586.152,-16891.928,-15022.429,-11100.637,-14981.413,-1467.593,-17018.752,-8952.901,-6484.800,0
14586.152,-16893.047,-15020.752,-11100.927,-14977.568,-1467.437,-17015.846,-8957.327,-6488.935,0
14586.152,-16896.846,-15024.328,-11104.324,-14983.581,-1466.140,-17019.668,-8955.853,-6488.622,0
14586.152,-16898.947,-15030.341,-11106.112,-14989.460,-1464.866,-17024.027,-8950.421,-6484.957,0
14586.152,-16899.506,-15031.258,-11106.470,-14991.517,-1467.481,-17027.916,-8954.399,-6489.874,0
14586.153,-16896.221,-15027.547,-11101.195,-14984.051,-1468.018,-17023.514,-8957.887,-6493.942,0
14586.153,-16893.762,-15025.178,-11098.736,-14979.938,-1467.258,-17020.229,-8959.138,-6492.712,0
14586.153,-16892.957,-15024.396,-11101.664,-14984.542,-1468.197,-17025.414,-8960.144,-6492.444,0
14586.153,-16893.807,-15028.017,-11102.871,-14988.633,-1469.046,-17032.008,-8958.557,-6491.662,0
14586.153,-16895.215,-15028.688,-11103.877,-14988.678,-1470.834,-17034.197,-8959.004,-6493.115,0
14586.153,-16890.811,-15024.038,-11099.541,-14980.520,-1472.689,-17031.762,-8962.200,-6495.238,0
14586.154,-16886.051,-15018.919,-11097.440,-14975.423,-1471.661,-17029.414,-8961.574,-6494.434,0
14586.211,-16888.174,-15020.015,-11099.317,-14980.072,-1470.767,-17033.014,-8957.707,-6491.572,0
14586.211,-16890.051,-15024.865,-11102.134,-14987.448,-1470.454,-17038.377,-8953.662,-6488.421,0
14586.212,-16889.336,-15023.301,-11099.094,-14985.839,-1466.453,-17034.734,-8949.393,-6483.459,0
14586.212,-16888.105,-15020.171,-11094.288,-14978.485,-1466.118,-17029.705,-8950.443,-6485.851,0
14586.212,-16886.811,-15020.015,-11093.148,-14975.133,-1466.431,-17027.582,-8953.081,-6490.231,0
14586.212,-16885.334,-15020.641,-11095.271,-14979.469,-1465.604,-17031.516,-8951.382,-6490.075,0
14586.212,-16885.291,-15021.534,-11098.424,-14984.811,-1465.515,-17036.656,-8951.561,-6491.997,0
14586.212,-16883.078,-15021.468,-11097.507,-14983.067,-1465.045,-17034.980,-8951.337,-6492.042,0
14586.212,-16880.707,-15018.539,-11093.439,-14974.887,-1465.135,-17029.213,-8952.901,-6492.601,0
14586.212,-16880.797,-15017.311,-11094.735,-14972.003,-1465.202,-17025.234,-8953.975,-6492.980,0
14586.212,-16885.424,-15019.099,-11099.250,-14978.307,-1464.844,-17026.889,-8952.812,-6490.455,0
14586.213,-16890.432,-15025.401,-11102.044,-14985.816,-1464.464,-17030.732,-8950.488,-6485.381,0
14586.213,-16888.598,-15020.953,-11100.077,-14985.303,-1464.285,-17029.928,-8948.052,-6483.258,0
14586.213,-16885.424,-15016.640,-11094.937,-14978.038,-1464.129,-17024.250,-8949.370,-6484.442,0
14586.213,-16884.195,-15016.394,-11092.232,-14974.148,-1463.480,-17021.322,-8950.197,-6484.263,0
14586.272,-16885.000,-15021.088,-11092.567,-14980.475,-1463.995,-17024.967,-8948.499,-6482.095,0
14586.272,-16882.898,-15016.886,-11092.880,-14986.241,-1463.168,-17026.508,-8943.179,-6477.133,0
14586.272,-16884.977,-15018.629,-11096.121,-14985.325,-1463.078,-17026.352,-8944.185,-6478.407,0
14586.272,-16886.898,-15021.043,-11095.875,-14978.262,-1463.391,-17023.021,-8951.024,-6485.023,0
14586.272,-16883.547,-15016.036,-11093.148,-14975.557,-1462.720,-17019.311,-8954.176,-6486.856,0
14586.272,-16883.547,-15016.416,-11094.847,-14980.787,-1460.865,-17021.793,-8954.332,-6485.538,0
14586.272,-16887.727,-15021.177,-11099.943,-14988.342,-1461.715,-17026.375,-8953.260,-6483.481,0
14586.272,-16886.162,-15018.718,-11097.708,-14987.270,-1461.894,-17025.189,-8950.265,-6484.107,0
14586.272,-16884.373,-15016.081,-11095.809,-14980.563,-1463.413,-17023.000,-8955.137,-6493.383,0
14586.273,-16885.514,-15016.506,-11096.345,-14977.435,-1463.391,-17022.127,-8958.758,-6494.679,0
14586.273,-16886.496,-15017.713,-11099.295,-14982.955,-1463.972,-17025.547,-8957.641,-6490.433,0
14586.273,-16886.006,-15017.332,-11101.910,-14988.007,-1464.866,-17029.615,-8959.094,-6492.444,0
14586.273,-16885.111,-15018.383,-11101.598,-14986.800,-1464.531,-17027.984,-8957.707,-6489.136,0
14586.273,-16880.016,-15012.862,-11096.166,-14977.703,-1463.503,-17019.781,-8955.048,-6485.292,0
14586.273,-16878.250,-15010.962,-11096.390,-14974.238,-1463.704,-17016.650,-8960.412,-6488.041,0
14586.332,-16879.791,-15015.053,-11099.675,-14979.535,-1462.899,-17021.055,-8961.485,-6490.231,0
14586.332,-16883.166,-15020.193,-11103.766,-14987.381,-1462.430,-17025.189,-8959.160,-6487.594,0
14586.332,-16883.010,-15017.354,-11104.324,-14987.202,-1462.050,-17023.111,-8957.528,-6485.962,0
14586.333,-16879.590,-15010.336,-11099.921,-14977.211,-1460.821,-17015.242,-8957.216,-6484.666,0
14586.333,-16879.746,-15009.129,-11100.457,-14974.148,-1461.357,-17014.506,-8959.451,-6487.862,0
14586.333,-16882.139,-15012.996,-11102.827,-14980.117,-1460.329,-17018.977,-8957.707,-6486.633,0
14586.333,-16884.262,-15015.880,-11105.509,-14986.554,-1460.083,-17021.211,-8953.014,-6481.537,0
14586.333,-16882.094,-15016.483,-11104.437,-14985.146,-1460.642,-17019.625,-8950.376,-6478.474,0
14586.333,-16880.797,-15013.488,-11099.854,-14977.658,-1462.162,-17015.020,-8952.790,-6481.157,0
14586.334,-16880.529,-15011.230,-11097.283,-14973.479,-1461.290,-17010.975,-8953.572,-6482.922,0
14586.334,-16884.328,-15014.538,-11100.413,-14980.497,-1461.804,-17014.305,-8950.577,-6480.151,0
14586.334,-16886.877,-15019.300,-11102.268,-14986.890,-1462.676,-17018.037,-8947.537,-6476.843,0
14586.334,-16885.535,-15015.589,-11101.776,-14986.219,-1463.838,-17016.740,-8947.537,-6474.875,0
14586.334,-16881.959,-15009.196,-11097.082,-14976.898,-1464.218,-17010.482,-8949.348,-6475.345,0
14586.335,-16881.199,-15008.146,-11097.172,-14974.328,-1464.106,-17008.762,-8952.566,-6479.033,0
14586.392,-16884.105,-15012.929,-11102.983,-14980.877,-1464.643,-17013.678,-8951.829,-6478.944,0
14586.392,-16888.375,-15019.746,-11106.627,-14987.157,-1464.486,-17017.971,-8950.510,-6474.854,0
14586.392,-16888.732,-15020.350,-11106.492,-14986.956,-1466.453,-17020.742,-8950.891,-6473.467,0
14586.392,-16884.172,-15015.924,-11101.485,-14977.658,-1467.392,-17017.523,-8954.310,-6476.686,0
14586.392,-16879.500,-15010.157,-11098.289,-14971.266,-1465.380,-17014.975,-8956.925,-6479.815,0
14586.392,-16882.430,-15013.063,-11101.731,-14976.540,-1466.252,-17020.965,-8957.551,-6483.146,0
14586.393,-16886.586,-15018.450,-11103.922,-14983.536,-1467.213,-17027.693,-8956.522,-6483.951,0
14586.393,-16883.613,-15016.818,-11099.810,-14981.727,-1465.112,-17026.865,-8955.137,-6483.124,0
14586.393,-16880.908,-15015.320,-11094.288,-14973.791,-1465.246,-17022.887,-8957.707,-6486.342,0
14586.393,-16882.027,-15015.388,-11094.423,-14972.562,-1467.325,-17022.508,-8961.865,-6492.891,0
14586.393,-16884.664,-15017.311,-11098.110,-14978.440,-1465.716,-17026.039,-8960.903,-6493.830,0
14586.393,-16887.682,-15020.171,-11102.805,-14986.442,-1465.515,-17029.771,-8957.148,-6488.309,0
14586.394,-16886.363,-15018.517,-11101.419,-14986.487,-1466.319,-17028.252,-8954.913,-6484.442,0
14586.394,-16878.160,-15008.884,-11094.378,-14975.758,-1465.425,-17018.863,-8956.500,-6485.716,0
14586.394,-16874.830,-15004.346,-11093.483,-14971.601,-1466.565,-17017.031,-8960.926,-6489.829,0
14586.452,-16873.734,-15003.117,-11096.099,-14975.870,-1465.760,-17019.713,-8956.612,-6484.845,0
14586.452,-16874.941,-15005.553,-11100.748,-14983.470,-1465.805,-17021.793,-8952.231,-6479.704,0
14586.452,-16871.387,-15004.436,-11098.915,-14982.509,-1465.582,-17019.043,-8948.678,-6476.217,0
14586.452,-16866.916,-14999.160,-11093.327,-14973.836,-1465.135,-17011.354,-8949.906,-6476.284,0
14586.452,-16866.135,-14994.847,-11091.785,-14971.354,-1464.978,-17008.426,-8951.427,-6477.178,0
14586.452,-16869.197,-14996.725,-11095.361,-14978.262,-1465.626,-17012.494,-8949.571,-6475.993,0
14586.453,-16871.902,-14999.429,-11098.669,-14986.867,-1466.431,-17018.283,-8947.336,-6476.396,0
14586.453,-16868.660,-14996.903,-11096.568,-14985.526,-1465.984,-17016.316,-8943.604,-6471.992,0
14586.453,-16867.275,-14995.539,-11094.266,-14976.831,-1465.604,-17010.482,-8945.123,-6471.523,0
14586.453,-16868.861,-14995.986,-11094.602,-14974.127,-1463.860,-17007.979,-8947.112,-6472.886,0
14586.453,-16870.449,-14996.791,-11097.239,-14979.469,-1462.452,-17011.152,-8945.258,-6470.003,0
14586.453,-16873.756,-15000.904,-11100.524,-14986.375,-1462.989,-17016.406,-8942.464,-6467.209,0
14586.453,-16872.281,-15002.356,-11099.631,-14984.967,-1463.682,-17014.506,-8942.776,-6466.203,0
14586.453,-16868.303,-14999.160,-11095.450,-14975.423,-1462.542,-17007.441,-8946.106,-6467.611,0
14586.453,-16870.783,-14997.774,-11096.121,-14973.501,-1462.430,-17007.486,-8949.325,-6470.763,0
14586.512,-16875.344,-15002.290,-11099.451,-14980.430,-1462.832,-17011.912,-8948.789,-6470.718,0
14586.513,-16875.479,-15003.854,-11101.485,-14986.219,-1462.229,-17016.764,-8946.018,-6469.802,0
14586.513,-16874.539,-15004.257,-11100.391,-14985.615,-1462.408,-17018.260,-8944.922,-6470.271,0
14586.513,-16872.684,-14999.921,-11096.010,-14978.329,-1463.190,-17014.461,-8946.732,-6474.585,0
14586.513,-16871.053,-14996.143,-11094.735,-14974.752,-1460.754,-17010.684,-8947.604,-6475.188,0
14586.513,-16874.002,-14998.669,-11099.787,-14981.503,-1459.837,-17014.059,-8945.884,-6471.679,0
14586.513,-16874.695,-15001.932,-11100.436,-14986.062,-1459.256,-17017.992,-8943.201,-6470.808,0
14586.514,-16872.863,-15002.021,-11099.742,-14984.699,-1460.888,-17017.299,-8942.799,-6471.076,0
14586.514,-16871.029,-14997.618,-11098.401,-14977.390,-1462.296,-17011.309,-8946.465,-6471.657,0
14586.514,-16872.348,-14993.595,-11099.898,-14975.154,-1462.855,-17008.314,-8950.086,-6472.752,0
14586.514,-16876.104,-14995.360,-11103.854,-14980.430,-1461.670,-17010.080,-8948.789,-6471.098,0
14586.514,-16876.842,-14998.579,-11105.889,-14987.247,-1461.491,-17013.879,-8945.973,-6469.377,0
14586.515,-16875.656,-14994.914,-11106.090,-14987.113,-1461.625,-17013.992,-8944.811,-6469.869,0
14586.515,-16876.686,-14993.036,-11104.392,-14979.535,-1461.648,-17009.096,-8947.896,-6472.529,0
14586.515,-16879.971,-14995.428,-11105.353,-14978.954,-1462.117,-17008.045,-8953.438,-6477.088,0
14586.573,-16882.832,-14997.842,-11108.571,-14984.743,-1462.273,-17012.471,-8955.428,-6480.508,0
14586.573,-16887.012,-15001.865,-11112.170,-14991.404,-1461.715,-17016.205,-8952.880,-6477.491,0
14586.573,-16886.832,-15003.184,-11112.505,-14991.874,-1462.385,-17017.367,-8953.461,-6477.603,0
14586.573,-16885.535,-15002.111,-11107.565,-14983.648,-1462.944,-17013.746,-8955.383,-6481.089,0
14586.574,-16885.895,-15001.843,-11105.353,-14979.446,-1463.123,-17012.270,-8957.976,-6483.258,0
14586.574,-16891.012,-15007.006,-11109.845,-14986.487,-1466.878,-17019.914,-8962.268,-6486.946,0
14586.574,-16892.711,-15010.336,-11111.768,-14992.634,-1467.504,-17026.150,-8960.166,-6486.677,0
14586.574,-16890.967,-15009.666,-11107.945,-14990.667,-1466.230,-17023.805,-8959.876,-6485.560,0
14586.574,-16887.682,-15006.000,-11102.604,-14983.090,-1466.543,-17018.484,-8964.234,-6489.605,0
14586.575,-16884.307,-15003.922,-11100.614,-14979.580,-1466.610,-17018.484,-8967.386,-6491.975,0
14586.575,-16884.508,-15006.716,-11103.095,-14985.638,-1466.409,-17024.586,-8966.380,-6490.924,0
14586.575,-16886.453,-15010.314,-11106.492,-14993.036,-1467.213,-17029.727,-8964.592,-6490.030,0
14586.575,-16883.748,-15006.112,-11105.486,-14990.846,-1468.420,-17027.357,-8962.066,-6487.974,0
14586.575,-16877.512,-14997.998,-11101.821,-14980.877,-1470.857,-17022.865,-8966.312,-6492.221,0
14586.576,-16875.098,-14998.445,-11102.089,-14977.479,-1472.466,-17023.691,-8972.817,-6496.333,0
14586.633,-16877.332,-15001.485,-11106.806,-14983.782,-1471.393,-17028.766,-8973.756,-6497.071,0
14586.633,-16877.557,-15001.127,-11109.510,-14989.729,-1470.097,-17031.783,-8970.917,-6496.087,0
14586.633,-16875.188,-15000.390,-11108.683,-14987.896,-1469.001,-17029.660,-8968.503,-6492.712,0
14586.633,-16872.594,-14997.350,-11104.659,-14979.982,-1469.471,-17022.574,-8969.732,-6491.930,0
14586.633,-16870.963,-14994.734,-11103.564,-14976.720,-1470.208,-17019.490,-8971.208,-6492.489,0
14586.633,-16873.912,-14998.780,-11107.342,-14983.156,-1470.566,-17023.133,-8969.621,-6489.874,0
14586.633,-16881.088,-15004.189,-11112.036,-14992.589,-1472.086,-17029.705,-8967.162,-6488.510,0
14586.633,-16882.295,-15004.413,-11108.057,-14990.577,-1470.410,-17027.135,-8963.184,-6486.789,0
14586.633,-16879.971,-15001.083,-11102.715,-14981.503,-1468.867,-17021.189,-8963.676,-6488.510,0
14586.633,-16881.289,-15001.910,-11103.721,-14979.245,-1467.526,-17018.551,-8967.229,-6490.768,0
14586.634,-16888.285,-15008.303,-11109.062,-14986.822,-1467.325,-17022.664,-8968.057,-6491.349,0
14586.634,-16893.873,-15013.041,-11113.578,-14994.936,-1468.778,-17028.699,-8966.045,-6491.550,0
14586.634,-16894.432,-15012.013,-11112.192,-14993.997,-1469.381,-17030.531,-8966.514,-6492.936,0
14586.634,-16891.840,-15006.983,-11107.096,-14984.609,-1468.957,-17025.301,-8969.062,-6496.668,0
14586.634,-16892.129,-15006.402,-11105.441,-14982.620,-1469.381,-17021.836,-8969.710,-6497.429,0
14586.692,-16894.275,-15009.286,-11107.230,-14987.426,-1468.778,-17024.631,-8967.386,-6494.009,0
14586.693,-16894.611,-15013.868,-11107.610,-14992.701,-1468.845,-17029.570,-8962.535,-6488.734,0
14586.693,-16890.699,-15011.565,-11103.653,-14990.778,-1469.583,-17029.324,-8961.843,-6489.114,0
14586.693,-16885.469,-15003.475,-11098.223,-14982.844,-1471.058,-17025.369,-8964.257,-6494.232,0
14586.693,-16881.355,-15000.837,-11094.489,-14978.396,-1470.834,-17023.715,-8964.323,-6495.283,0
14586.693,-16882.652,-15004.793,-11097.507,-14984.743,-1471.214,-17028.387,-8963.139,-6493.562,0
14586.693,-16883.971,-15008.504,-11100.681,-14989.661,-1469.940,-17032.945,-8960.971,-6491.751,0
14586.694,-16884.889,-15009.286,-11103.653,-14991.136,-1472.756,-17034.510,-8962.312,-6491.081,0
14586.694,-16879.680,-15003.475,-11098.334,-14982.396,-1472.801,-17026.598,-8963.407,-6488.465,0
14586.694,-16876.527,-15001.083,-11095.853,-14979.155,-1471.304,-17021.211,-8963.407,-6488.510,0
14586.694,-16878.316,-14999.339,-11097.999,-14984.788,-1469.225,-17022.619,-8958.088,-6481.760,0
14586.694,-16878.629,-15000.188,-11102.715,-14990.957,-1470.231,-17028.117,-8956.612,-6482.185,0
14586.695,-16873.510,-14998.513,-11099.519,-14987.873,-1469.940,-17028.877,-8955.763,-6484.979,0
14586.695,-16869.242,-14995.584,-11096.121,-14980.229,-1472.198,-17025.213,-8958.848,-6486.499,0
14586.695,-16865.666,-14990.846,-11097.462,-14977.613,-1471.907,-17022.799,-8960.121,-6483.928,0
14586.752,-16869.777,-14993.036,-11101.978,-14984.185,-1469.672,-17025.457,-8957.439,-6481.670,0
14586.752,-16876.326,-14998.177,-11106.582,-14992.566,-1469.985,-17029.795,-8955.763,-6479.480,0
14586.752,-16877.803,-15000.233,-11106.336,-14991.807,-1470.275,-17029.750,-8957.148,-6481.157,0
14586.753,-16876.686,-14999.406,-11103.318,-14984.363,-1472.041,-17026.195,-8960.591,-6486.186,0
14586.753,-16876.572,-15001.798,-11102.268,-14981.637,-1472.309,-17025.234,-8964.122,-6488.533,0
14586.753,-16878.830,-15006.536,-11105.441,-14987.537,-1470.253,-17028.877,-8962.736,-6486.052,0
14586.753,-16879.902,-15003.631,-11110.136,-14994.802,-1470.789,-17033.861,-8960.278,-6485.895,0
14586.753,-16874.875,-14996.411,-11107.163,-14992.365,-1471.728,-17033.170,-8959.071,-6487.460,0
14586.754,-16873.711,-14999.764,-11100.748,-14983.693,-1472.332,-17029.996,-8963.027,-6490.187,0
14586.754,-16879.859,-15010.202,-11100.413,-14982.553,-1473.360,-17031.113,-8970.403,-6496.400,0
14586.754,-16880.619,-15011.968,-11100.681,-14988.320,-1472.667,-17033.750,-8970.068,-6496.043,0
14586.754,-16880.865,-15012.639,-11101.374,-14993.863,-1472.443,-17036.812,-8966.894,-6491.796,0
14586.754,-16880.686,-15014.181,-11101.150,-14992.343,-1474.522,-17036.812,-8965.195,-6491.438,0
14586.754,-16878.451,-15011.387,-11098.356,-14984.855,-1476.355,-17031.225,-8966.648,-6494.143,0
14586.755,-16877.848,-15010.426,-11097.239,-14982.062,-1473.807,-17025.168,-8963.273,-6487.460,0
14586.812,-16883.748,-15017.377,-11103.766,-14990.689,-1473.427,-17028.475,-8959.675,-6483.057,0
14586.812,-16887.727,-15020.439,-11109.085,-14997.216,-1473.047,-17030.375,-8954.601,-6476.731,0
14586.812,-16884.328,-15016.147,-11106.202,-14994.176,-1472.779,-17028.273,-8952.812,-6475.345,0
14586.812,-16876.641,-15006.895,-11099.675,-14983.693,-1471.035,-17021.412,-8953.147,-6475.256,0
14586.813,-16876.461,-15005.688,-11100.658,-14981.257,-1471.505,-17021.346,-8957.484,-6479.480,0
14586.813,-16876.215,-15005.710,-11100.748,-14985.347,-1470.499,-17024.742,-8956.724,-6480.956,0
14586.813,-16876.104,-15007.386,-11103.766,-14992.164,-1471.616,-17030.174,-8957.037,-6483.995,0
14586.813,-16875.209,-15007.766,-11104.995,-14992.008,-1471.438,-17029.033,-8957.261,-6484.196,0
14586.813,-16872.146,-14999.831,-11100.859,-14983.291,-1470.231,-17023.268,-8958.713,-6485.001,0
14586.813,-16875.611,-15002.871,-11101.307,-14982.062,-1469.873,-17023.625,-8961.239,-6487.571,0
14586.813,-16881.334,-15010.738,-11104.034,-14989.594,-1470.275,-17029.705,-8961.306,-6489.270,0
14586.813,-16884.084,-15015.634,-11105.732,-14996.054,-1470.499,-17034.176,-8959.741,-6489.404,0
14586.813,-16883.480,-15017.332,-11105.464,-14995.137,-1472.868,-17034.398,-8960.233,-6488.421,0
14586.813,-16880.574,-15012.460,-11101.664,-14985.593,-1473.896,-17028.877,-8962.960,-6489.740,0
14586.814,-16879.746,-15009.554,-11102.201,-14982.799,-1474.321,-17028.387,-8967.095,-6494.500,0
14586.873,-16881.043,-15012.080,-11104.749,-14987.471,-1473.986,-17033.281,-8968.615,-6496.177,0
14586.873,-16882.385,-15015.098,-11106.067,-14993.147,-1473.896,-17038.311,-8966.357,-6495.774,0
14586.873,-16881.557,-15014.717,-11105.018,-14992.745,-1474.679,-17039.227,-8965.598,-6497.451,0
14586.873,-16877.734,-15011.141,-11099.675,-14983.470,-1473.494,-17030.777,-8965.665,-6494.098,0
14586.873,-16875.031,-15008.012,-11098.244,-14980.318,-1473.271,-17027.268,-8967.117,-6494.992,0
14586.873,-16878.428,-15011.186,-11100.637,-14987.091,-1473.561,-17031.537,-8963.898,-6494.232,0
14586.874,-16882.385,-15015.745,-11101.910,-14994.802,-1474.366,-17037.080,-8960.077,-6491.014,0
14586.874,-16882.385,-15018.539,-11101.865,-14994.601,-1476.020,-17038.557,-8959.854,-6491.796,0
14586.874,-16880.283,-15016.394,-11100.301,-14986.420,-1476.333,-17033.840,-8964.771,-6495.328,0
14586.874,-16880.016,-15015.030,-11101.865,-14983.983,-1476.243,-17031.627,-8970.001,-6500.916,0
14586.874,-16880.596,-15017.556,-11107.186,-14990.287,-1475.148,-17035.539,-8971.900,-6503.151,0
14586.874,-16881.803,-15020.261,-11111.074,-14996.813,-1475.260,-17040.010,-8971.498,-6500.178,0
14586.874,-16881.713,-15021.065,-11113.332,-14996.099,-1476.422,-17040.254,-8972.058,-6500.379,0
14586.875,-16880.641,-15019.232,-11111.589,-14988.387,-1478.166,-17035.852,-8973.912,-6501.944,0
14586.875,-16880.619,-15017.668,-11111.320,-14986.040,-1478.702,-17036.053,-8976.103,-6505.162,0
14586.933,-16883.994,-15021.579,-11113.868,-14991.583,-1477.473,-17039.875,-8976.438,-6507.397,0
14586.933,-16887.816,-15026.563,-11117.064,-14997.686,-1476.780,-17043.340,-8976.617,-6506.548,0
14586.933,-16887.459,-15026.251,-11113.086,-14995.271,-1476.735,-17042.334,-8975.566,-6507.353,0
14586.933,-16885.156,-15023.904,-11107.208,-14987.314,-1479.127,-17039.316,-8979.992,-6512.427,0
14586.934,-16886.787,-15027.883,-11106.470,-14986.196,-1480.200,-17040.367,-8983.926,-6516.115,0
14586.934,-16890.230,-15031.906,-11108.817,-14991.695,-1479.484,-17045.195,-8983.099,-6516.785,0
14586.934,-16894.566,-15036.979,-11112.885,-14998.445,-1479.440,-17049.061,-8982.205,-6516.808,0
14586.934,-16894.320,-15035.526,-11112.326,-14997.171,-1479.484,-17046.781,-8981.109,-6514.014,0
14586.934,-16891.525,-15030.520,-11107.945,-14988.565,-1478.188,-17039.986,-8982.630,-6513.433,0
14586.935,-16892.711,-15030.587,-11108.728,-14988.588,-1478.836,-17038.734,-8984.775,-6516.629,0
14586.935,-16893.873,-15031.950,-11111.477,-14994.914,-1477.070,-17040.992,-8980.573,-6513.857,0
14586.935,-16895.303,-15033.984,-11114.606,-15001.194,-1476.266,-17043.227,-8977.332,-6511.287,0
14586.935,-16893.002,-15032.264,-11111.723,-14997.976,-1475.461,-17039.316,-8976.036,-6507.777,0
14586.935,-16890.408,-15025.491,-11107.274,-14990.242,-1476.757,-17033.393,-8977.020,-6506.235,0
14586.935,-16889.426,-15024.440,-11106.850,-14989.103,-1477.607,-17033.057,-8981.199,-6510.370,0
14586.993,-16887.660,-15023.926,-11108.571,-14993.729,-1476.623,-17036.879,-8979.970,-6508.538,0
14586.993,-16887.502,-15025.535,-11111.142,-14999.942,-1476.288,-17040.770,-8977.131,-6505.967,0
14586.993,-16883.637,-15024.932,-11108.616,-14997.193,-1475.908,-17038.311,-8975.499,-6503.866,0
14586.993,-16878.295,-15017.936,-11103.788,-14988.499,-1476.981,-17032.521,-8978.137,-6505.855,0
14586.993,-16874.314,-15008.280,-11103.273,-14986.777,-1478.970,-17031.291,-8981.244,-6509.968,0
14586.993,-16876.215,-15008.638,-11107.476,-14992.634,-1479.149,-17035.650,-8981.378,-6510.191,0
14586.994,-16882.496,-15016.371,-11112.125,-14997.551,-1477.584,-17038.936,-8977.131,-6505.788,0
14586.994,-16882.719,-15017.533,-11110.829,-14996.501,-1477.339,-17036.924,-8974.047,-6503.575,0
14586.994,-16879.836,-15013.733,-11106.716,-14988.879,-1477.271,-17033.191,-8976.036,-6505.967,0
14586.994,-16881.021,-15015.566,-11107.274,-14986.487,-1476.780,-17033.258,-8977.779,-6508.493,0
14586.994,-16887.145,-15023.993,-11111.901,-14993.773,-1477.048,-17038.668,-8976.886,-6507.241,0
14586.994,-16888.777,-15027.994,-11112.192,-15000.100,-1476.534,-17041.484,-8971.275,-6502.614,0
14586.994,-16888.666,-15027.994,-11111.008,-14999.519,-1476.757,-17038.980,-8968.727,-6501.117,0
14586.994,-16886.676,-15022.764,-11104.727,-14989.974,-1475.617,-17031.404,-8968.280,-6497.294,0
14586.994,-16885.604,-15019.657,-11102.827,-14987.873,-1476.981,-17031.672,-8969.688,-6498.613,0
14587.053,-16888.621,-15021.490,-11107.319,-14994.198,-1477.696,-17036.344,-8968.437,-6496.400,0
14587.054,-16891.840,-15022.898,-11111.142,-15000.948,-1478.300,-17040.211,-8967.811,-6495.484,0
14587.054,-16891.414,-15021.825,-11110.807,-15000.367,-1477.875,-17039.205,-8967.654,-6494.747,0
14587.054,-16888.039,-15018.070,-11106.627,-14991.002,-1475.685,-17033.057,-8968.995,-6495.417,0
14587.054,-16888.330,-15018.025,-11107.073,-14988.655,-1475.081,-17032.723,-8970.112,-6496.892,0
14587.054,-16891.236,-15020.171,-11111.544,-14995.651,-1474.902,-17037.193,-8966.894,-6495.372,0
14587.055,-16894.096,-15023.032,-11114.852,-15002.580,-1475.260,-17039.518,-8964.391,-6493.338,0
14587.055,-16893.023,-15020.060,-11112.147,-15000.077,-1473.203,-17036.164,-8961.954,-6490.879,0
14587.055,-16891.191,-15016.773,-11106.492,-14992.187,-1473.516,-17030.285,-8962.491,-6490.477,0
14587.055,-16889.783,-15015.187,-11103.386,-14989.460,-1471.371,-17026.463,-8962.245,-6487.952,0
14587.055,-16895.102,-15019.232,-11107.744,-14997.573,-1473.338,-17032.096,-8963.832,-6489.539,0
14587.056,-16896.488,-15021.937,-11110.024,-15002.916,-1473.852,-17036.455,-8963.072,-6488.175,0
14587.056,-16891.885,-15020.261,-11106.783,-14999.451,-1473.382,-17034.957,-8962.558,-6489.069,0
14587.056,-16888.777,-15018.450,-11101.978,-14992.209,-1474.835,-17031.762,-8964.771,-6493.718,0
14587.056,-16886.318,-15015.880,-11100.122,-14988.945,-1473.896,-17031.045,-8963.452,-6494.389,0
14587.112,-16888.420,-15019.635,-11103.877,-14995.473,-1472.622,-17037.035,-8961.127,-6493.718,0
14587.113,-16892.934,-15025.647,-11106.738,-15003.296,-1472.443,-17041.842,-8959.518,-6492.667,0
14587.113,-16892.934,-15024.820,-11105.039,-15001.016,-1473.181,-17040.791,-8958.893,-6493.204,0
14587.113,-16891.438,-15021.848,-11103.095,-14992.946,-1474.634,-17037.527,-8963.251,-6498.367,0
14587.113,-16893.068,-15022.630,-11103.721,-14992.164,-1473.673,-17036.566,-8968.012,-6503.441,0
14587.113,-16899.082,-15030.967,-11109.175,-15001.307,-1474.478,-17040.770,-8968.347,-6500.737,0
14587.114,-16901.562,-15034.275,-11110.292,-15006.090,-1473.360,-17041.104,-8965.866,-6494.925,0
14587.114,-16898.791,-15030.564,-11108.280,-15002.960,-1472.779,-17036.455,-8963.921,-6491.572,0
14587.114,-16895.773,-15026.787,-11106.648,-14995.808,-1474.343,-17029.771,-8967.073,-6492.667,0
14587.114,-16893.939,-15025.200,-11106.225,-14993.327,-1473.762,-17027.783,-8968.168,-6493.070,0
14587.114,-16892.129,-15024.508,-11106.962,-14996.970,-1470.745,-17029.102,-8963.094,-6487.058,0
14587.114,-16892.822,-15026.050,-11108.750,-15002.401,-1472.175,-17034.377,-8962.603,-6487.460,0
14587.115,-16892.711,-15025.714,-11105.732,-15000.546,-1475.148,-17035.404,-8962.871,-6488.510,0
14587.115,-16889.135,-15021.177,-11100.748,-14991.561,-1475.506,-17029.951,-8963.854,-6488.935,0
14587.115,-16889.312,-15020.060,-11100.122,-14989.146,-1473.606,-17027.648,-8964.436,-6488.935,0
14587.172,-16893.270,-15025.268,-11103.766,-14996.612,-1473.271,-17032.275,-8963.832,-6488.465,0
14587.172,-16894.924,-15028.575,-11106.157,-15004.346,-1474.299,-17036.656,-8962.401,-6487.080,0
14587.172,-16893.762,-15029.581,-11104.279,-15002.692,-1474.500,-17034.756,-8960.747,-6485.403,0
14587.173,-16891.348,-15023.591,-11101.262,-14994.266,-1474.165,-17028.475,-8961.619,-6487.504,0
14587.173,-16889.961,-15019.165,-11100.167,-14990.957,-1472.242,-17025.502,-8961.306,-6488.376,0
14587.173,-16892.756,-15023.948,-11104.615,-14998.222,-1473.382,-17030.152,-8959.764,-6487.907,0
14587.173,-16894.699,-15025.312,-11106.336,-15003.251,-1472.667,-17032.834,-8955.808,-6483.459,0
14587.173,-16893.359,-15025.178,-11102.692,-15000.568,-1472.354,-17033.057,-8955.315,-6484.331,0
14587.173,-16891.973,-15023.770,-11099.430,-14993.170,-1473.874,-17031.627,-8961.775,-6491.930,0
14587.173,-16894.029,-15023.904,-11101.374,-14992.410,-1474.790,-17033.930,-8967.207,-6497.272,0
14587.173,-16896.354,-15025.312,-11105.934,-14999.317,-1474.992,-17040.857,-8967.654,-6497.541,0
14587.173,-16894.455,-15023.032,-11106.783,-15003.541,-1474.053,-17045.082,-8968.503,-6499.642,0
14587.173,-16896.332,-15025.200,-11107.722,-15002.111,-1474.120,-17044.836,-8970.471,-6502.458,0
14587.173,-16901.271,-15027.391,-11108.906,-14995.719,-1475.416,-17040.992,-8977.556,-6507.420,0
14587.174,-16902.992,-15027.682,-11111.074,-14995.048,-1474.411,-17039.025,-8978.517,-6508.917,0
14587.233,-16904.781,-15030.900,-11113.712,-15000.882,-1472.622,-17042.580,-8975.790,-6506.168,0
14587.233,-16907.574,-15034.856,-11117.064,-15006.112,-1472.645,-17047.943,-8975.320,-6506.861,0
14587.233,-16905.094,-15032.800,-11114.896,-15003.095,-1473.651,-17046.916,-8975.097,-6506.414,0
14587.233,-16901.875,-15027.436,-11110.985,-14994.377,-1475.796,-17043.227,-8979.791,-6509.521,0
14587.233,-16900.445,-15025.424,-11110.561,-14991.382,-1474.455,-17039.182,-8980.439,-6506.369,0
14587.233,-16901.316,-15029.447,-11113.601,-14998.378,-1474.142,-17041.596,-8977.287,-6502.972,0
14587.233,-16899.887,-15027.659,-11114.360,-15002.625,-1474.120,-17044.232,-8971.678,-6500.580,0
14587.233,-16899.148,-15028.308,-11112.840,-15000.546,-1475.550,-17042.557,-8969.867,-6497.719,0
14587.233,-16896.600,-15025.670,-11110.068,-14992.030,-1476.959,-17036.098,-8974.762,-6498.367,0
14587.233,-16896.287,-15024.730,-11110.359,-14991.069,-1476.243,-17034.086,-8979.054,-6502.592,0
14587.233,-16897.875,-15027.793,-11114.338,-14998.579,-1476.199,-17037.908,-8978.338,-6501.139,0
14587.234,-16900.199,-15032.956,-11117.222,-15004.503,-1476.243,-17041.172,-8974.694,-6496.512,0
14587.234,-16898.947,-15032.018,-11116.438,-15002.804,-1477.987,-17040.680,-8975.142,-6497.116,0
14587.234,-16893.537,-15027.056,-11111.544,-14994.467,-1478.054,-17034.891,-8975.187,-6499.150,0
14587.234,-16891.705,-15023.613,-11111.901,-14991.718,-1476.891,-17032.768,-8975.656,-6499.977,0
14587.293,-16895.549,-15030.431,-11116.438,-14999.026,-1477.920,-17037.684,-8974.940,-6499.932,0
14587.293,-16899.975,-15037.695,-11117.914,-15005.285,-1479.037,-17043.518,-8973.711,-6501.586,0
14587.293,-16899.863,-15037.382,-11116.841,-15003.966,-1480.825,-17043.451,-8974.271,-6500.290,0
14587.293,-16895.996,-15029.604,-11112.595,-14995.025,-1480.088,-17036.701,-8975.455,-6499.708,0
14587.294,-16896.107,-15026.095,-11111.723,-14993.685,-1479.641,-17034.912,-8977.980,-6503.911,0
14587.294,-16903.574,-15031.570,-11118.160,-15003.586,-1479.887,-17040.211,-8977.153,-6504.850,0
14587.294,-16907.574,-15036.376,-11120.016,-15009.465,-1476.847,-17041.506,-8970.515,-6496.087,0
14587.294,-16907.820,-15037.784,-11117.177,-15007.051,-1477.450,-17041.506,-8970.336,-6496.355,0
14587.294,-16904.490,-15033.649,-11111.969,-14997.261,-1476.064,-17038.041,-8971.900,-6500.424,0
14587.294,-16904.268,-15030.855,-11112.952,-14995.539,-1476.154,-17038.645,-8974.427,-6503.508,0
14587.294,-16908.514,-15035.549,-11117.646,-15002.178,-1475.819,-17044.412,-8975.008,-6504.894,0
14587.294,-16910.279,-15038.656,-11120.574,-15008.347,-1476.444,-17049.375,-8975.478,-6505.408,0
14587.294,-16909.184,-15039.863,-11119.926,-15006.850,-1477.361,-17049.150,-8977.332,-6507.755,0
14587.294,-16905.676,-15035.772,-11116.707,-14998.490,-1477.651,-17043.854,-8980.193,-6510.438,0
14587.294,-16903.305,-15029.626,-11116.461,-14995.941,-1477.651,-17041.842,-8985.424,-6514.617,0
14587.353,-16907.217,-15035.103,-11121.312,-15002.916,-1477.808,-17044.971,-8985.312,-6512.337,0
14587.353,-16909.654,-15037.852,-11123.636,-15008.235,-1477.651,-17047.184,-8981.848,-6508.225,0
14587.354,-16908.916,-15036.466,-11120.149,-15004.524,-1476.757,-17044.523,-8979.545,-6506.034,0
14587.354,-16905.340,-15032.644,-11114.785,-14996.165,-1478.344,-17039.473,-8981.445,-6508.157,0
14587.354,-16904.311,-15031.347,-11113.265,-14995.204,-1479.417,-17039.383,-8984.082,-6512.002,0
14587.354,-16907.664,-15036.242,-11118.138,-15003.027,-1480.781,-17045.418,-8983.747,-6511.778,0
14587.354,-16907.887,-15036.376,-11119.390,-15008.123,-1479.931,-17047.229,-8978.674,-6505.744,0
14587.355,-16904.758,-15032.531,-11115.098,-15004.883,-1478.411,-17044.189,-8975.969,-6504.604,0
14587.355,-16902.031,-15027.056,-11110.628,-14996.434,-1477.227,-17036.633,-8977.668,-6506.570,0
14587.355,-16901.428,-15026.340,-11109.979,-14994.601,-1475.729,-17033.885,-8978.271,-6505.989,0
14587.355,-16905.742,-15032.554,-11115.210,-15002.223,-1476.109,-17039.092,-8977.153,-6504.469,0
14587.355,-16907.061,-15036.421,-11115.746,-15006.604,-1475.170,-17040.545,-8973.532,-6498.703,0
14587.355,-16906.322,-15037.896,-11113.868,-15003.676,-1474.880,-17038.311,-8973.645,-6497.228,0
14587.356,-16905.316,-15033.582,-11111.835,-14995.897,-1476.087,-17033.080,-8978.227,-6498.971,0
14587.356,-16905.988,-15034.342,-11112.438,-14995.584,-1476.936,-17033.416,-8979.947,-6502.123,0
14587.414,-16909.363,-15038.343,-11118.228,-15003.362,-1477.115,-17039.986,-8979.522,-6501.832,0
14587.414,-16911.643,-15042.255,-11122.206,-15008.995,-1476.087,-17043.295,-8978.517,-6498.010,0
14587.414,-16910.838,-15043.261,-11119.412,-15007.140,-1475.685,-17041.775,-8978.651,-6499.485,0
14587.414,-16909.184,-15040.869,-11115.701,-14999.987,-1475.975,-17037.371,-8982.451,-6505.118,0
14587.414,-16910.502,-15042.680,-11116.506,-14999.474,-1476.109,-17036.029,-8984.865,-6506.257,0
14587.414,-16912.090,-15044.311,-11118.450,-15005.218,-1474.768,-17038.914,-8981.043,-6501.608,0
14587.414,-16911.018,-15044.065,-11118.450,-15009.330,-1475.349,-17043.094,-8979.612,-6499.820,0
14587.414,-16906.568,-15041.294,-11115.992,-15005.374,-1476.489,-17042.043,-8981.378,-6501.184,0
14587.414,-16903.887,-15038.969,-11112.706,-14998.312,-1478.970,-17039.785,-8986.608,-6508.671,0
14587.414,-16901.316,-15035.616,-11110.605,-14996.210,-1478.166,-17039.182,-8987.458,-6510.951,0
14587.415,-16902.457,-15037.136,-11114.271,-15003.765,-1478.031,-17043.562,-8985.424,-6510.303,0
14587.415,-16903.775,-15038.231,-11115.813,-15009.353,-1477.316,-17044.412,-8979.299,-6504.089,0
14587.415,-16904.043,-15037.494,-11114.227,-15009.018,-1477.719,-17041.238,-8974.784,-6501.474,0
14587.415,-16900.533,-15033.851,-11110.247,-15000.770,-1478.233,-17034.287,-8976.640,-6500.021,0
14587.415,-16901.941,-15031.727,-11112.036,-14999.562,-1477.719,-17032.275,-8978.808,-6501.430,0
14587.474,-16907.887,-15036.891,-11116.059,-15005.329,-1475.930,-17036.545,-8976.438,-6500.781,0
14587.474,-16911.934,-15043.193,-11120.418,-15011.901,-1477.160,-17042.512,-8977.176,-6500.938,0
14587.474,-16911.576,-15041.294,-11117.959,-15009.845,-1476.869,-17040.971,-8976.818,-6499.574,0
14587.475,-16906.502,-15034.477,-11111.723,-15000.523,-1476.266,-17033.504,-8975.790,-6498.188,0
14587.475,-16904.736,-15032.018,-11111.700,-14999.339,-1476.936,-17033.729,-8977.623,-6500.133,0
14587.475,-16905.518,-15031.146,-11114.606,-15005.665,-1476.646,-17037.260,-8975.276,-6496.400,0
14587.475,-16907.352,-15034.789,-11116.395,-15011.521,-1477.808,-17039.809,-8972.906,-6492.779,0
14587.475,-16909.453,-15041.606,-11114.650,-15008.973,-1476.310,-17037.125,-8973.041,-6494.724,0
14587.475,-16911.084,-15044.669,-11112.326,-15000.814,-1475.126,-17031.783,-8977.042,-6498.792,0
14587.476,-16914.705,-15045.831,-11114.874,-15000.367,-1475.707,-17033.861,-8983.591,-6505.609,0
14587.476,-16919.197,-15049.139,-11120.552,-15008.459,-1478.143,-17041.574,-8985.469,-6507.554,0
14587.476,-16917.186,-15046.859,-11120.641,-15011.744,-1477.696,-17044.189,-8979.500,-6504.827,0
14587.476,-16913.230,-15046.121,-11115.053,-15008.079,-1478.903,-17045.150,-8977.332,-6506.548,0
14587.476,-16908.424,-15042.612,-11107.834,-14998.825,-1479.551,-17042.154,-8979.746,-6511.019,0
14587.477,-16905.676,-15038.030,-11105.777,-14996.725,-1478.590,-17041.260,-8980.327,-6511.645,0
14587.533,-16908.223,-15043.573,-11110.292,-15004.391,-1475.416,-17047.520,-8980.126,-6510.214,0
14587.533,-16907.441,-15043.395,-11114.159,-15009.442,-1468.934,-17051.721,-8977.556,-6509.208,0
14587.533,-16904.289,-15041.629,-11110.829,-15005.933,-1470.678,-17049.441,-8976.505,-6507.912,0
14587.534,-16896.779,-15032.688,-11102.134,-14994.668,-1470.030,-17040.725,-8973.376,-6504.782,0
14587.534,-16893.471,-15027.883,-11102.156,-14994.020,-1470.991,-17040.725,-8974.874,-6507.621,0
14587.534,-16895.215,-15029.760,-11105.911,-15002.066,-1472.913,-17046.133,-8974.314,-6504.291,0
14587.534,-16896.824,-15033.493,-11107.945,-15009.465,-1475.103,-17050.291,-8971.477,-6501.474,0
14587.535,-16894.543,-15031.638,-11103.721,-15005.754,-1475.819,-17046.379,-8970.001,-6501.295,0
14587.535,-16891.438,-15029.291,-11098.736,-14996.813,-1475.886,-17037.707,-8969.956,-6499.127,0
14587.535,-16891.414,-15029.224,-11099.116,-14995.584,-1474.634,-17035.471,-8971.722,-6499.530,0
14587.535,-16894.141,-15031.079,-11103.318,-15002.133,-1475.528,-17040.500,-8974.203,-6501.542,0
14587.535,-16897.227,-15033.694,-11105.509,-15008.771,-1477.182,-17045.574,-8975.924,-6503.687,0
14587.535,-16896.891,-15034.029,-11102.760,-15006.805,-1477.540,-17043.295,-8975.589,-6503.553,0
14587.536,-16894.008,-15029.045,-11098.580,-14997.082,-1477.942,-17036.969,-8976.952,-6504.782,0
14587.536,-16894.254,-15029.156,-11101.195,-14996.210,-1479.171,-17036.947,-8979.791,-6507.241,0
14587.593,-16897.785,-15035.236,-11106.671,-15003.563,-1480.021,-17041.350,-8978.338,-6504.134,0
14587.593,-16900.377,-15036.376,-11109.398,-15009.912,-1479.551,-17044.479,-8974.472,-6499.329,0
14587.593,-16899.953,-15037.293,-11107.990,-15008.504,-1479.082,-17042.736,-8972.080,-6499.462,0
14587.593,-16897.338,-15033.270,-11105.441,-15000.747,-1480.602,-17038.086,-8974.717,-6503.687,0
14587.593,-16894.723,-15030.073,-11105.397,-14998.132,-1479.395,-17035.627,-8973.376,-6503.709,0
14587.593,-16897.695,-15033.627,-11113.153,-15006.515,-1479.618,-17041.619,-8971.409,-6501.698,0
14587.594,-16898.836,-15036.891,-11107.990,-15010.694,-1478.143,-17046.424,-8967.609,-6497.071,0
14587.594,-16897.605,-15033.716,-11106.180,-15008.950,-1477.383,-17042.982,-8965.933,-6494.232,0
14587.594,-16891.570,-15025.111,-11101.776,-14999.496,-1477.048,-17033.861,-8965.955,-6491.751,0
14587.594,-16891.684,-15024.552,-11104.638,-14999.406,-1477.607,-17033.236,-8970.358,-6493.495,0
14587.594,-16893.605,-15027.793,-11107.677,-15005.106,-1476.087,-17035.807,-8970.515,-6491.595,0
14587.594,-16896.221,-15031.102,-11110.561,-15011.253,-1476.780,-17039.115,-8969.062,-6492.131,0
14587.594,-16896.041,-15029.246,-11111.187,-15009.688,-1478.993,-17036.723,-8970.649,-6494.322,0
14587.594,-16893.023,-15024.597,-11107.297,-15000.747,-1478.881,-17029.973,-8974.248,-6495.260,0
14587.595,-16892.309,-15024.307,-11105.330,-14998.154,-1477.897,-17028.297,-8975.880,-6497.809,0
14587.653,-16893.270,-15027.011,-11106.671,-15002.178,-1475.573,-17032.096,-8974.516,-6495.238,0
14587.653,-16896.176,-15030.185,-11109.912,-15008.928,-1476.064,-17038.154,-8973.443,-6495.328,0
14587.654,-16893.693,-15027.011,-11106.291,-15005.978,-1476.534,-17036.834,-8973.197,-6497.071,0
14587.654,-16890.342,-15020.507,-11099.898,-14996.612,-1476.914,-17031.984,-8977.399,-6501.206,0
14587.654,-16892.197,-15022.451,-11100.189,-14995.875,-1478.009,-17034.867,-8980.506,-6506.973,0
14587.654,-16896.152,-15026.139,-11105.062,-15001.954,-1479.998,-17041.059,-8981.400,-6508.292,0
14587.654,-16896.266,-15026.452,-11108.303,-15005.866,-1480.043,-17042.848,-8978.941,-6503.709,0
14587.655,-16896.221,-15027.883,-11108.057,-15003.027,-1480.870,-17041.193,-8979.411,-6503.665,0
14587.655,-16896.824,-15026.810,-11105.710,-14996.188,-1480.155,-17034.332,-8980.261,-6503.575,0
14587.655,-16895.773,-15026.161,-11103.162,-14993.729,-1478.702,-17032.969,-8979.590,-6505.587,0
14587.655,-16899.752,-15031.123,-11108.035,-15002.245,-1480.445,-17039.740,-8978.182,-6508.716,0
14587.655,-16900.533,-15032.621,-11110.851,-15008.392,-1480.557,-17042.893,-8974.271,-6501.519,0
14587.656,-16897.002,-15029.045,-11107.767,-15003.721,-1480.155,-17040.053,-8975.700,-6499.083,0
14587.656,-16894.365,-15025.021,-11103.564,-14994.064,-1478.859,-17034.867,-8978.114,-6500.491,0
14587.656,-16897.383,-15027.659,-11105.486,-14994.533,-1479.060,-17036.275,-8980.797,-6504.894,0
14587.714,-16904.871,-15037.158,-11112.014,-15003.184,-1477.942,-17042.020,-8979.769,-6503.933,0
14587.714,-16906.793,-15040.422,-11116.216,-15008.280,-1477.540,-17044.121,-8978.830,-6503.352,0
14587.714,-16906.568,-15039.125,-11117.400,-15006.000,-1479.574,-17041.551,-8980.283,-6504.447,0
14587.714,-16903.775,-15035.661,-11113.354,-14997.708,-1480.334,-17035.383,-8981.646,-6507.308,0
14587.715,-16902.791,-15035.885,-11113.221,-14996.702,-1479.618,-17033.951,-8981.311,-6507.621,0
14587.715,-16904.781,-15039.527,-11115.880,-15003.296,-1479.060,-17039.428,-8978.674,-6504.939,0
14587.715,-16905.676,-15038.946,-11118.048,-15009.174,-1479.350,-17044.076,-8977.153,-6503.531,0
14587.715,-16904.154,-15038.880,-11115.098,-15006.782,-1478.613,-17041.328,-8976.192,-6502.838,0
14587.715,-16902.256,-15032.732,-11110.292,-14998.915,-1478.054,-17036.074,-8978.048,-6505.006,0
14587.715,-16903.529,-15031.213,-11110.873,-14999.339,-1478.121,-17036.812,-8980.618,-6506.414,0
14587.716,-16904.803,-15034.074,-11113.221,-15005.643,-1477.763,-17042.244,-8978.695,-6506.816,0
14587.716,-16904.646,-15036.510,-11114.227,-15009.666,-1476.534,-17045.418,-8974.047,-6503.285,0
14587.716,-16904.848,-15037.382,-11113.868,-15007.922,-1477.719,-17044.502,-8974.918,-6503.978,0
14587.716,-16901.115,-15032.196,-11110.203,-15000.301,-1478.255,-17038.422,-8980.193,-6507.420,0
14587.716,-16901.584,-15032.465,-11111.634,-15001.753,-1479.350,-17038.758,-8983.390,-6509.990,0
14587.774,-16904.268,-15036.063,-11114.494,-15009.465,-1480.356,-17044.301,-8980.908,-6509.409,0
14587.774,-16904.043,-15038.075,-11116.573,-15014.695,-1480.959,-17046.469,-8977.623,-6506.414,0
14587.774,-16899.797,-15035.951,-11114.852,-15010.672,-1481.295,-17043.049,-8977.064,-6503.598,0
14587.774,-16895.438,-15030.252,-11111.856,-15001.485,-1480.959,-17038.377,-8978.450,-6505.229,0
14587.774,-16893.963,-15028.218,-11112.527,-15000.301,-1479.954,-17036.791,-8977.310,-6504.067,0
14587.774,-16894.834,-15028.731,-11112.684,-15004.771,-1478.367,-17038.936,-8973.823,-6500.603,0
14587.774,-16898.857,-15034.722,-11114.315,-15011.364,-1479.104,-17044.166,-8973.287,-6499.194,0
14587.774,-16896.443,-15032.040,-11111.924,-15008.660,-1479.149,-17041.662,-8973.443,-6499.619,0
14587.775,-16894.320,-15024.932,-11111.477,-15001.619,-1479.328,-17035.941,-8978.159,-6503.330,0
14587.775,-16898.902,-15028.688,-11113.354,-15001.351,-1478.993,-17035.182,-8982.183,-6505.408,0
14587.775,-16904.021,-15033.851,-11116.126,-15008.235,-1476.780,-17037.998,-8978.114,-6501.586,0
14587.775,-16908.961,-15037.605,-11120.172,-15015.701,-1476.154,-17040.902,-8975.008,-6498.233,0
14587.775,-16908.223,-15035.438,-11118.585,-15011.901,-1476.020,-17036.656,-8973.242,-6495.752,0
14587.775,-16905.697,-15030.341,-11114.673,-15002.736,-1476.199,-17029.883,-8975.030,-6496.333,0
14587.775,-16907.887,-15029.402,-11117.042,-15002.356,-1476.266,-17029.078,-8977.310,-6497.339,0
14587.834,-16914.771,-15034.945,-11123.391,-15011.097,-1476.087,-17034.020,-8974.918,-6495.395,0
14587.834,-16914.213,-15031.683,-11124.150,-15013.823,-1474.031,-17034.756,-8968.012,-6489.852,0
14587.834,-16914.482,-15029.648,-11122.631,-15010.336,-1475.260,-17032.186,-8967.497,-6489.583,0
14587.835,-16913.654,-15025.268,-11120.172,-15002.736,-1475.908,-17027.537,-8970.649,-6494.054,0
14587.835,-16912.805,-15022.607,-11120.619,-15002.290,-1476.601,-17028.273,-8973.979,-6497.339,0
14587.835,-16916.516,-15027.547,-11124.642,-15009.800,-1477.204,-17034.623,-8972.885,-6496.512,0
14587.835,-16919.533,-15032.420,-11127.324,-15014.784,-1477.316,-17039.852,-8970.851,-6494.858,0
14587.835,-16920.516,-15032.353,-11126.452,-15011.610,-1477.517,-17038.891,-8970.649,-6494.813,0
14587.835,-16917.723,-15029.693,-11120.954,-15002.647,-1475.126,-17032.521,-8972.080,-6494.880,0
14587.836,-16919.912,-15033.225,-11122.496,-15003.586,-1475.550,-17033.684,-8975.053,-6497.742,0
14587.836,-16923.287,-15037.404,-11124.620,-15010.672,-1475.707,-17038.287,-8972.594,-6498.233,0
14587.836,-16924.494,-15038.119,-11126.318,-15016.282,-1475.685,-17040.836,-8969.911,-6493.986,0
14587.836,-16921.434,-15036.287,-11122.966,-15011.834,-1474.723,-17035.852,-8970.270,-6491.103,0
14587.836,-16918.684,-15033.984,-11121.468,-15004.346,-1477.070,-17031.158,-8975.008,-6495.774,0
14587.836,-16917.410,-15031.034,-11123.323,-15004.078,-1477.584,-17030.219,-8977.377,-6496.780,0
14587.894,-16920.137,-15032.554,-11127.257,-15011.477,-1477.227,-17033.930,-8975.187,-6491.863,0
14587.895,-16921.969,-15034.879,-11127.637,-15016.506,-1477.584,-17037.305,-8972.102,-6489.471,0
14587.895,-16917.387,-15031.615,-11123.145,-15012.035,-1479.283,-17036.432,-8972.259,-6492.154,0
14587.895,-16910.771,-15025.759,-11116.685,-15002.066,-1480.512,-17032.855,-8975.388,-6496.512,0
14587.895,-16911.240,-15026.340,-11116.998,-15001.529,-1480.311,-17032.855,-8976.595,-6499.150,0
14587.895,-16913.520,-15028.396,-11121.088,-15009.554,-1481.071,-17038.779,-8974.583,-6499.016,0
14587.895,-16912.873,-15028.553,-11121.669,-15014.359,-1480.468,-17042.781,-8972.058,-6497.228,0
14587.896,-16909.027,-15027.391,-11118.115,-15010.761,-1481.339,-17042.512,-8971.432,-6498.032,0
14587.896,-16902.658,-15022.518,-11112.147,-15001.485,-1482.055,-17037.438,-8972.750,-6499.329,0
14587.896,-16902.076,-15021.579,-11113.242,-15002.111,-1482.971,-17039.785,-8975.276,-6502.189,0
14587.896,-16903.037,-15021.937,-11115.165,-15008.012,-1480.848,-17042.400,-8970.247,-6498.188,0
14587.896,-16905.205,-15024.463,-11118.138,-15014.158,-1480.781,-17045.977,-8970.202,-6499.843,0
14587.897,-16904.646,-15025.356,-11117.624,-15010.761,-1480.959,-17042.848,-8971.275,-6499.150,0
14587.897,-16901.316,-15022.652,-11114.338,-15001.865,-1481.407,-17036.230,-8975.589,-6499.418,0
14587.897,-16901.607,-15024.597,-11116.171,-15001.619,-1481.272,-17035.695,-8978.338,-6502.436,0
14587.954,-16901.607,-15025.178,-11118.965,-15007.096,-1479.350,-17038.533,-8974.985,-6499.619,0
14587.954,-16901.428,-15024.485,-11121.424,-15012.013,-1480.043,-17043.227,-8973.421,-6500.066,0
14587.954,-16897.182,-15022.071,-11117.109,-15005.799,-1479.954,-17040.344,-8971.052,-6497.317,0
14587.954,-16894.320,-15018.562,-11114.584,-14997.729,-1481.675,-17036.432,-8975.209,-6499.820,0
14587.954,-16896.443,-15018.986,-11117.355,-14999.004,-1482.904,-17038.064,-8979.746,-6502.569,0
14587.954,-16899.326,-15020.976,-11120.306,-15005.039,-1482.457,-17042.557,-8978.941,-6500.826,0
14587.954,-16898.299,-15019.881,-11120.753,-15008.683,-1481.272,-17044.926,-8974.739,-6497.004,0
14587.954,-16894.230,-15015.656,-11116.148,-15004.972,-1481.116,-17043.115,-8973.733,-6496.937,0
14587.955,-16892.576,-15011.074,-11111.991,-14997.462,-1482.278,-17039.004,-8976.237,-6501.206,0
14587.955,-16894.029,-15010.403,-11112.862,-14997.261,-1479.730,-17036.611,-8972.996,-6497.674,0
14587.955,-16899.350,-15014.092,-11117.914,-15006.492,-1478.434,-17039.830,-8968.146,-6494.031,0
14587.955,-16900.689,-15011.364,-11119.390,-15013.443,-1478.344,-17041.172,-8963.810,-6491.103,0
14587.955,-16896.600,-15008.481,-11114.315,-15009.330,-1478.434,-17038.713,-8963.385,-6490.924,0
14587.955,-16899.686,-15015.276,-11111.365,-15000.837,-1478.009,-17036.098,-8969.018,-6497.406,0
14587.955,-16903.619,-15018.562,-11112.058,-14999.116,-1475.796,-17034.131,-8968.683,-6495.954,0
14587.955,-16907.730,-15026.027,-11115.434,-15007.498,-1475.461,-17038.311,-8965.665,-6493.919,0
14588.015,-16910.973,-15031.683,-11116.662,-15013.265,-1474.120,-17040.701,-8959.361,-6489.136,0
14588.015,-16910.727,-15031.146,-11113.332,-15008.839,-1473.941,-17038.891,-8957.573,-6488.085,0
14588.015,-16909.988,-15032.710,-11108.236,-15001.016,-1476.579,-17034.176,-8958.691,-6490.433,0
14588.015,-16910.793,-15033.247,-11107.163,-15001.172,-1476.824,-17033.639,-8960.479,-6492.712,0
14588.016,-16915.107,-15039.505,-11112.550,-15009.085,-1477.428,-17039.271,-8961.061,-6491.237,0
14588.016,-16918.885,-15046.523,-11115.165,-15012.840,-1476.422,-17042.266,-8960.568,-6491.282,0
14588.016,-16919.623,-15047.104,-11112.997,-15009.129,-1475.796,-17038.936,-8961.351,-6491.371,0
14588.016,-16917.008,-15042.590,-11109.220,-15000.859,-1475.640,-17031.807,-8963.898,-6492.265,0
14588.016,-16919.756,-15044.937,-11112.975,-15002.223,-1476.467,-17034.332,-8970.828,-6498.233,0
14588.016,-16921.656,-15049.362,-11116.015,-15007.632,-1474.254,-17039.785,-8969.531,-6499.127,0
14588.017,-16921.389,-15051.084,-11117.021,-15012.080,-1474.679,-17043.652,-8968.548,-6499.016,0
14588.017,-16920.248,-15052.022,-11114.494,-15008.839,-1475.975,-17042.824,-8969.911,-6499.507,0
14588.017,-16916.225,-15046.948,-11110.337,-14998.557,-1474.411,-17036.389,-8972.616,-6502.905,0
14588.017,-16917.723,-15045.183,-11114.003,-14999.921,-1474.522,-17036.320,-8975.499,-6503.732,0
14588.017,-16919.623,-15048.223,-11117.400,-15007.229,-1472.175,-17037.596,-8973.309,-6498.032,0
14588.075,-16922.260,-15051.530,-11120.597,-15014.047,-1472.689,-17039.539,-8970.225,-6493.986,0
14588.075,-16920.561,-15050.480,-11118.741,-15010.738,-1473.092,-17037.260,-8969.890,-6495.864,0
14588.075,-16914.258,-15044.311,-11113.310,-15001.105,-1472.399,-17031.717,-8971.096,-6497.339,0
14588.076,-16912.135,-15042.188,-11112.595,-15000.658,-1472.600,-17032.432,-8972.906,-6497.004,0
14588.076,-16912.873,-15045.316,-11115.545,-15008.012,-1474.254,-17038.980,-8971.297,-6497.250,0
14588.076,-16910.682,-15043.797,-11115.769,-15012.482,-1473.785,-17040.211,-8966.224,-6492.333,0
14588.076,-16905.340,-15039.640,-11111.388,-15007.900,-1473.427,-17035.627,-8965.396,-6489.248,0
14588.076,-16899.082,-15033.336,-11105.174,-14997.729,-1474.031,-17029.816,-8966.692,-6490.075,0
14588.076,-16898.521,-15031.190,-11105.576,-14997.573,-1473.919,-17029.838,-8966.983,-6490.142,0
14588.076,-16900.959,-15033.716,-11110.181,-15004.838,-1475.081,-17035.539,-8965.441,-6490.120,0
14588.077,-16899.773,-15034.968,-11111.901,-15008.347,-1476.422,-17038.779,-8963.966,-6487.683,0
14588.077,-16895.461,-15031.280,-11108.057,-15002.804,-1476.713,-17036.969,-8961.306,-6485.403,0
14588.077,-16890.678,-15025.647,-11105.129,-14996.099,-1479.104,-17033.527,-8961.909,-6487.191,0
14588.077,-16889.805,-15023.882,-11103.475,-14995.763,-1478.166,-17032.699,-8959.585,-6485.493,0
14588.077,-16894.320,-15029.872,-11105.755,-15003.139,-1476.310,-17036.902,-8956.701,-6482.028,0
14588.135,-16896.555,-15034.655,-11107.118,-15007.944,-1475.193,-17040.568,-8955.539,-6482.163,0
14588.135,-16897.002,-15035.259,-11106.671,-15006.850,-1476.355,-17041.418,-8960.457,-6488.533,0
14588.135,-16895.125,-15030.609,-11103.922,-14999.942,-1476.467,-17037.170,-8966.000,-6496.378,0
14588.135,-16895.951,-15031.303,-11103.140,-14998.915,-1474.925,-17036.924,-8968.503,-6499.194,0
14588.136,-16900.199,-15036.354,-11106.828,-15006.313,-1475.863,-17042.959,-8968.727,-6497.250,0
14588.136,-16899.125,-15036.107,-11107.677,-15010.761,-1477.875,-17046.625,-8966.938,-6496.467,0
14588.136,-16897.717,-15034.186,-11107.051,-15006.604,-1479.373,-17043.920,-8968.168,-6496.535,0
14588.136,-16899.215,-15030.252,-11107.274,-14998.669,-1479.685,-17037.215,-8972.594,-6500.178,0
14588.136,-16900.980,-15030.788,-11109.532,-14998.937,-1480.356,-17037.975,-8973.912,-6501.318,0
14588.136,-16902.166,-15032.800,-11112.684,-15005.710,-1481.786,-17043.025,-8972.526,-6498.457,0
14588.136,-16902.434,-15030.766,-11114.986,-15009.487,-1480.624,-17044.055,-8968.839,-6493.227,0
14588.136,-16902.098,-15029.447,-11112.997,-15006.536,-1481.027,-17040.322,-8966.983,-6491.885,0
14588.137,-16900.064,-15026.317,-11109.644,-14999.361,-1482.122,-17034.176,-8966.581,-6490.410,0
14588.137,-16901.854,-15026.385,-11111.209,-15000.502,-1481.921,-17034.264,-8966.312,-6489.471,0
14588.137,-16907.619,-15032.732,-11115.857,-15008.392,-1481.451,-17039.941,-8966.111,-6490.254,0
14588.195,-16909.051,-15036.220,-11116.729,-15012.728,-1481.071,-17043.025,-8963.184,-6488.600,0
14588.196,-16903.998,-15032.062,-11111.320,-15006.961,-1480.982,-17039.025,-8960.948,-6486.834,0
14588.196,-16899.059,-15027.122,-11107.409,-14997.842,-1480.088,-17032.498,-8961.687,-6484.152,0
14588.196,-16900.533,-15026.430,-11110.404,-14999.809,-1479.395,-17032.498,-8964.413,-6484.241,0
14588.196,-16902.545,-15029.581,-11112.885,-15005.441,-1477.182,-17037.527,-8961.217,-6482.766,0
14588.196,-16906.883,-15035.571,-11114.896,-15011.789,-1478.277,-17042.848,-8958.490,-6482.363,0
14588.197,-16907.396,-15035.661,-11112.349,-15008.437,-1478.859,-17039.562,-8959.228,-6482.922,0
14588.197,-16905.607,-15032.599,-11108.884,-15000.100,-1479.127,-17035.471,-8963.586,-6487.370,0
14588.197,-16906.658,-15035.684,-11110.807,-15000.725,-1479.954,-17037.482,-8967.497,-6491.751,0
14588.197,-16909.676,-15039.505,-11114.562,-15006.269,-1479.373,-17042.133,-8966.805,-6490.790,0
14588.197,-16914.438,-15042.746,-11118.585,-15010.896,-1479.529,-17046.691,-8967.207,-6491.841,0
14588.198,-16915.889,-15043.104,-11117.243,-15007.743,-1480.915,-17045.865,-8970.313,-6495.193,0
14588.198,-16912.805,-15038.119,-11111.879,-14999.160,-1479.507,-17039.316,-8972.526,-6497.965,0
14588.198,-16912.447,-15038.231,-11112.885,-14999.496,-1477.719,-17039.271,-8973.220,-6496.311,0
14588.198,-16916.561,-15041.964,-11118.429,-15007.587,-1478.501,-17044.904,-8973.287,-6495.104,0
14588.256,-16919.086,-15047.239,-11119.591,-15012.348,-1479.507,-17049.217,-8971.678,-6494.880,0
14588.256,-16916.203,-15044.244,-11116.528,-15007.408,-1479.730,-17046.646,-8970.693,-6498.032,0
14588.256,-16914.146,-15041.718,-11115.098,-15000.568,-1479.104,-17039.584,-8973.265,-6496.244,0
14588.256,-16913.945,-15040.087,-11116.976,-15000.948,-1477.607,-17038.557,-8975.320,-6497.339,0
14588.257,-16916.605,-15043.484,-11121.289,-15008.459,-1476.511,-17044.256,-8974.561,-6498.792,0
14588.257,-16919.711,-15047.999,-11124.485,-15014.985,-1476.757,-17047.988,-8969.599,-6493.629,0
14588.257,-16914.840,-15044.109,-11119.903,-15010.225,-1476.221,-17045.820,-8965.105,-6491.595,0
14588.257,-16905.250,-15034.610,-11111.946,-14999.071,-1474.522,-17039.338,-8962.580,-6491.349,0
14588.257,-16901.695,-15031.012,-11110.628,-14997.931,-1473.740,-17037.482,-8961.262,-6489.650,0
14588.257,-16903.484,-15032.800,-11114.114,-15004.771,-1472.868,-17040.770,-8957.663,-6485.001,0
14588.258,-16904.758,-15035.951,-11117.512,-15011.588,-1475.103,-17044.836,-8957.462,-6485.403,0
14588.258,-16899.125,-15029.916,-11112.930,-15006.895,-1476.154,-17040.701,-8957.060,-6484.979,0
14588.258,-16893.783,-15024.061,-11107.163,-14998.646,-1475.953,-17034.689,-8959.965,-6487.907,0
14588.258,-16894.699,-15024.194,-11108.861,-15000.188,-1476.064,-17034.912,-8962.513,-6490.321,0
14588.258,-16897.629,-15028.933,-11112.215,-15007.207,-1474.567,-17038.154,-8960.032,-6487.013,0
14588.315,-16896.779,-15027.815,-11112.975,-15010.761,-1474.925,-17041.395,-8957.686,-6486.834,0
14588.315,-16894.611,-15024.753,-11111.700,-15007.944,-1476.780,-17040.947,-8957.729,-6489.740,0
14588.315,-16891.639,-15021.110,-11108.683,-14999.406,-1476.690,-17035.314,-8961.239,-6490.298,0
14588.315,-16892.732,-15020.909,-11110.851,-15000.166,-1477.204,-17038.266,-8966.246,-6494.389,0
14588.315,-16897.896,-15025.625,-11114.874,-15006.983,-1476.579,-17044.703,-8967.497,-6496.065,0
14588.316,-16900.467,-15029.737,-11116.886,-15011.879,-1477.562,-17049.105,-8965.776,-6495.372,0
14588.316,-16897.584,-15028.731,-11112.840,-15005.911,-1477.115,-17046.201,-8965.486,-6496.668,0
14588.316,-16893.492,-15023.681,-11108.169,-14996.612,-1477.651,-17041.908,-8968.324,-6501.787,0
14588.316,-16891.840,-15022.115,-11108.795,-14996.813,-1477.763,-17042.848,-8969.286,-6502.704,0
14588.316,-16894.924,-15028.263,-11112.550,-15004.257,-1476.959,-17047.273,-8969.308,-6499.150,0
14588.316,-16897.539,-15033.761,-11114.114,-15009.890,-1477.495,-17049.598,-8968.392,-6498.479,0
14588.316,-16895.191,-15031.437,-11111.275,-15005.464,-1477.540,-17045.641,-8967.252,-6496.937,0
14588.316,-16892.867,-15025.647,-11108.571,-14996.725,-1477.160,-17038.869,-8968.704,-6497.920,0
14588.316,-16893.984,-15024.888,-11110.203,-14997.104,-1475.707,-17037.662,-8967.788,-6496.668,0
14588.316,-16898.232,-15030.878,-11112.080,-15003.340,-1473.092,-17038.891,-8960.501,-6487.952,0
14588.375,-16901.451,-15034.275,-11113.712,-15008.906,-1472.712,-17041.193,-8955.137,-6479.860,0
14588.375,-16899.818,-15031.548,-11111.655,-15003.631,-1472.019,-17037.059,-8954.042,-6478.295,0
14588.375,-16896.197,-15027.167,-11106.671,-14994.377,-1471.728,-17030.621,-8956.143,-6480.754,0
14588.376,-16897.494,-15029.022,-11108.325,-14997.283,-1473.226,-17031.605,-8957.686,-6483.839,0
14588.376,-16901.227,-15033.694,-11113.041,-15005.754,-1473.427,-17037.236,-8955.539,-6482.945,0
14588.376,-16903.664,-15036.645,-11113.846,-15009.666,-1472.175,-17039.025,-8950.376,-6481.067,0
14588.376,-16901.785,-15037.002,-11110.672,-15005.889,-1471.505,-17035.807,-8951.293,-6481.134,0
14588.376,-16898.947,-15029.514,-11107.297,-14996.881,-1471.929,-17030.062,-8956.366,-6483.973,0
14588.377,-16901.428,-15028.128,-11109.890,-14998.400,-1473.539,-17032.834,-8960.568,-6489.292,0
14588.377,-16906.949,-15034.275,-11114.047,-15006.693,-1473.673,-17038.332,-8958.735,-6489.539,0
14588.377,-16909.922,-15037.650,-11117.222,-15011.856,-1474.276,-17042.557,-8957.663,-6487.125,0
14588.377,-16906.166,-15034.029,-11114.494,-15005.665,-1473.762,-17038.758,-8959.115,-6483.750,0
14588.377,-16900.758,-15027.547,-11110.002,-14996.434,-1473.785,-17033.639,-8962.736,-6487.817,0
14588.377,-16900.758,-15027.994,-11111.030,-14997.686,-1473.069,-17034.645,-8963.206,-6489.695,0
14588.378,-16904.311,-15035.840,-11113.689,-15004.122,-1471.795,-17039.205,-8958.602,-6487.728,0
14588.435,-16905.652,-15040.601,-11114.785,-15008.123,-1471.728,-17043.406,-8956.836,-6488.085,0
14588.436,-16903.506,-15040.668,-11111.768,-15003.765,-1471.102,-17040.367,-8956.411,-6487.504,0
14588.436,-16900.467,-15033.046,-11109.062,-14996.456,-1470.767,-17034.689,-8958.780,-6489.583,0
14588.436,-16900.332,-15034.097,-11109.957,-14998.513,-1471.907,-17035.918,-8959.071,-6489.852,0
14588.436,-16903.551,-15039.952,-11113.511,-15005.665,-1472.108,-17040.166,-8956.232,-6487.125,0
14588.436,-16906.055,-15043.528,-11115.098,-15010.448,-1471.862,-17043.518,-8954.892,-6486.476,0
14588.436,-16904.223,-15042.925,-11113.310,-15006.716,-1472.153,-17039.896,-8955.740,-6486.565,0
14588.437,-16899.686,-15037.963,-11110.694,-14998.355,-1472.287,-17033.035,-8959.071,-6487.907,0
14588.437,-16900.154,-15035.169,-11114.137,-15000.323,-1473.069,-17034.086,-8963.541,-6488.421,0
14588.437,-16903.328,-15034.543,-11118.630,-15007.498,-1473.852,-17038.602,-8963.317,-6486.789,0
14588.437,-16903.797,-15034.097,-11119.948,-15011.767,-1475.372,-17041.797,-8962.781,-6487.058,0
14588.437,-16900.668,-15033.358,-11118.228,-15009.264,-1478.814,-17041.775,-8966.045,-6492.601,0
14588.438,-16895.170,-15028.509,-11113.556,-15000.948,-1479.529,-17037.840,-8969.062,-6497.742,0
14588.438,-16897.785,-15032.822,-11116.506,-15004.189,-1482.122,-17041.127,-8973.130,-6501.698,0
14588.438,-16901.316,-15036.891,-11120.820,-15012.907,-1482.837,-17047.496,-8972.460,-6500.245,0
14588.495,-16902.881,-15038.521,-11123.837,-15018.048,-1483.865,-17050.625,-8971.297,-6500.759,0
14588.495,-16899.752,-15037.293,-11121.938,-15013.778,-1483.575,-17047.967,-8971.900,-6499.127,0
14588.495,-16896.176,-15033.001,-11118.630,-15005.844,-1482.859,-17044.367,-8974.271,-6501.117,0
14588.496,-16897.113,-15033.358,-11120.708,-15006.604,-1483.061,-17046.156,-8976.952,-6506.548,0
14588.496,-16900.779,-15036.532,-11125.938,-15014.852,-1484.983,-17053.822,-8978.450,-6508.694,0
14588.496,-16901.182,-15036.466,-11127.012,-15019.099,-1485.475,-17058.047,-8977.287,-6509.252,0
14588.496,-16899.998,-15033.537,-11123.815,-15014.404,-1486.413,-17055.633,-8977.310,-6512.226,0
14588.496,-16896.801,-15028.173,-11119.300,-15005.665,-1484.804,-17047.721,-8978.562,-6511.332,0
14588.496,-16897.113,-15029.760,-11121.133,-15006.559,-1482.524,-17043.898,-8979.255,-6507.464,0
14588.496,-16900.689,-15034.678,-11125.514,-15015.343,-1482.502,-17047.049,-8978.919,-6506.771,0
14588.496,-16902.881,-15037.874,-11127.279,-15020.395,-1483.307,-17050.760,-8975.478,-6504.380,0
14588.496,-16902.746,-15034.923,-11124.440,-15016.282,-1483.307,-17047.898,-8974.337,-6503.508,0
14588.496,-16900.914,-15031.190,-11120.261,-15008.705,-1483.955,-17043.428,-8976.282,-6505.073,0
14588.496,-16903.506,-15031.168,-11121.848,-15009.956,-1484.849,-17044.277,-8976.595,-6505.185,0
14588.497,-16907.955,-15034.990,-11126.006,-15017.444,-1485.340,-17049.688,-8974.472,-6503.933,0
14588.556,-16908.469,-15039.907,-11126.520,-15020.774,-1484.960,-17052.883,-8972.750,-6503.888,0
14588.556,-16905.562,-15040.087,-11121.646,-15015.723,-1484.513,-17049.732,-8971.454,-6502.279,0
14588.556,-16901.785,-15032.644,-11117.132,-15006.536,-1485.028,-17044.121,-8973.688,-6503.061,0
14588.556,-16903.998,-15031.794,-11120.037,-15008.884,-1485.810,-17047.430,-8976.147,-6507.286,0
14588.556,-16905.205,-15035.817,-11121.603,-15014.695,-1485.430,-17051.967,-8972.996,-6505.833,0
14588.556,-16906.010,-15037.158,-11121.826,-15018.182,-1487.352,-17056.102,-8973.577,-6506.213,0
14588.556,-16902.992,-15033.761,-11118.361,-15013.063,-1488.537,-17053.844,-8975.880,-6507.755,0
14588.556,-16900.623,-15030.743,-11114.629,-15004.480,-1488.559,-17048.480,-8978.293,-6510.214,0
14588.557,-16903.484,-15030.542,-11116.573,-15005.889,-1487.553,-17048.525,-8977.891,-6509.051,0
14588.557,-16905.965,-15031.950,-11118.764,-15013.488,-1486.704,-17053.486,-8974.271,-6504.559,0
14588.557,-16906.523,-15035.549,-11121.065,-15017.623,-1487.263,-17055.611,-8970.806,-6502.346,0
14588.557,-16905.832,-15035.594,-11118.518,-15013.130,-1488.023,-17051.609,-8970.336,-6502.391,0
14588.557,-16902.389,-15030.587,-11114.338,-15004.547,-1486.100,-17044.859,-8973.443,-6501.832,0
14588.557,-16901.809,-15028.017,-11115.545,-15005.263,-1485.117,-17044.703,-8974.628,-6500.223,0
14588.557,-16903.350,-15029.045,-11119.076,-15012.795,-1485.407,-17049.262,-8973.487,-6499.910,0
14588.616,-16904.199,-15031.123,-11120.708,-15016.595,-1485.028,-17050.402,-8968.771,-6497.004,0
14588.616,-16902.680,-15028.889,-11118.920,-15012.728,-1484.625,-17047.385,-8966.179,-6496.736,0
14588.616,-16899.641,-15024.418,-11114.740,-15004.101,-1482.591,-17042.043,-8966.782,-6497.116,0
14588.616,-16900.914,-15027.234,-11116.417,-15005.710,-1483.731,-17044.836,-8971.856,-6502.480,0
14588.617,-16907.352,-15037.404,-11122.407,-15016.170,-1486.860,-17053.756,-8973.688,-6504.782,0
14588.617,-16908.111,-15043.484,-11122.586,-15019.434,-1483.977,-17054.627,-8968.213,-6496.736,0
14588.617,-16904.043,-15041.808,-11118.651,-15014.114,-1483.999,-17051.832,-8966.604,-6495.238,0
14588.617,-16901.809,-15037.002,-11115.992,-15007.564,-1484.893,-17046.871,-8968.660,-6496.110,0
14588.617,-16902.143,-15035.325,-11118.228,-15009.040,-1483.128,-17046.646,-8969.241,-6495.774,0
14588.617,-16903.217,-15038.857,-11122.295,-15015.030,-1483.128,-17052.303,-8969.040,-6496.222,0
14588.618,-16905.988,-15042.791,-11125.491,-15019.881,-1485.139,-17058.314,-8970.962,-6499.686,0
14588.618,-16903.328,-15038.723,-11120.977,-15015.209,-1485.475,-17055.990,-8971.498,-6501.810,0
14588.618,-16900.176,-15032.040,-11117.400,-15007.677,-1485.363,-17050.648,-8973.868,-6502.055,0
14588.618,-16900.959,-15032.062,-11120.484,-15009.510,-1485.184,-17051.318,-8977.399,-6503.575,0
14588.618,-16902.902,-15034.678,-11125.156,-15016.170,-1485.519,-17056.371,-8976.662,-6503.061,0
14588.676,-16902.590,-15034.856,-11125.782,-15019.635,-1485.206,-17059.119,-8972.817,-6503.553,0
14588.676,-16898.836,-15031.638,-11120.954,-15014.158,-1484.111,-17055.723,-8971.521,-6503.151,0
14588.676,-16895.102,-15029.000,-11117.222,-15006.425,-1484.357,-17051.387,-8974.940,-6506.638,0
14588.676,-16895.795,-15030.096,-11118.607,-15007.096,-1483.619,-17052.727,-8975.097,-6508.247,0
14588.677,-16898.299,-15032.309,-11121.691,-15014.359,-1482.412,-17056.930,-8974.382,-6507.889,0
14588.677,-16901.182,-15034.499,-11125.402,-15019.925,-1483.374,-17059.992,-8977.310,-6510.214,0
14588.677,-16898.701,-15031.079,-11123.055,-15015.320,-1483.441,-17055.074,-8979.054,-6510.102,0
14588.677,-16896.398,-15028.731,-11120.708,-15008.012,-1482.412,-17048.055,-8982.049,-6512.114,0
14588.677,-16899.484,-15032.330,-11124.329,-15009.666,-1481.719,-17047.318,-8982.652,-6511.801,0
14588.677,-16902.902,-15035.594,-11127.302,-15016.349,-1480.982,-17050.469,-8980.060,-6509.677,0
14588.677,-16905.406,-15040.913,-11129.202,-15021.870,-1482.301,-17054.516,-8976.729,-6507.576,0
14588.677,-16905.385,-15044.602,-11125.224,-15017.444,-1481.898,-17051.229,-8974.091,-6503.754,0
14588.677,-16904.109,-15038.365,-11120.708,-15009.286,-1481.563,-17044.814,-8973.846,-6503.396,0
14588.677,-16901.338,-15032.309,-11120.127,-15009.062,-1479.685,-17042.064,-8969.621,-6500.960,0
14588.677,-16902.947,-15032.576,-11122.988,-15015.634,-1479.373,-17047.139,-8964.480,-6497.116,0
14588.736,-16904.088,-15029.492,-11124.374,-15018.875,-1480.378,-17051.297,-8962.960,-6496.423,0
14588.736,-16904.088,-15027.101,-11123.032,-15015.276,-1483.083,-17050.066,-8965.441,-6497.585,0
14588.736,-16901.092,-15022.987,-11119.232,-15006.604,-1481.943,-17043.854,-8966.961,-6499.194,0
14588.736,-16900.869,-15025.379,-11119.501,-15008.102,-1482.234,-17045.328,-8968.459,-6501.340,0
14588.736,-16904.691,-15030.878,-11122.005,-15015.991,-1482.345,-17051.342,-8965.017,-6497.093,0
14588.736,-16905.160,-15032.040,-11123.055,-15020.261,-1483.128,-17053.510,-8962.759,-6492.265,0
14588.736,-16903.574,-15027.682,-11120.909,-15016.147,-1484.916,-17052.279,-8966.447,-6496.467,0
14588.736,-16900.064,-15023.792,-11115.679,-15008.057,-1483.552,-17046.469,-8969.576,-6499.462,0
14588.736,-16901.205,-15025.894,-11117.534,-15009.956,-1482.301,-17046.424,-8971.074,-6500.267,0
14588.737,-16903.619,-15030.252,-11120.842,-15016.438,-1479.373,-17050.223,-8965.173,-6497.250,0
14588.737,-16906.770,-15037.271,-11122.541,-15021.825,-1480.401,-17053.801,-8962.849,-6496.780,0
14588.737,-16902.971,-15035.146,-11117.602,-15015.790,-1480.959,-17048.838,-8964.659,-6495.842,0
