timestamps,Fz,F3,C4,Cz,Pz,P3,O2,O1,Marker
15115.999,-16949.104,-14804.566,-11373.417,-16008.521,-317.842,-16697.715,-8693.398,-6104.351,0
15115.999,-16946.355,-14799.560,-11369.818,-16001.212,-313.595,-16689.355,-8691.789,-6101.959,0
15115.999,-16951.943,-14804.633,-11373.641,-16006.800,-311.181,-16690.428,-8691.453,-6099.590,0
15115.999,-16957.463,-14811.093,-11377.843,-16015.472,-310.890,-16694.674,-8690.783,-6096.908,0
15115.999,-16958.939,-14813.552,-11379.050,-16018.333,-311.092,-16696.238,-8690.403,-6097.891,0
15116.000,-16951.697,-14804.723,-11373.126,-16009.549,-309.169,-16687.678,-8688.995,-6099.567,0
15116.000,-16945.617,-14796.207,-11369.147,-16002.352,-307.158,-16680.594,-8684.479,-6094.114,0
15116.000,-16947.920,-14798.039,-11373.998,-16009.146,-308.901,-16684.258,-8687.006,-6092.862,0
15116.000,-16949.262,-14801.638,-11377.262,-16016.612,-310.063,-16689.512,-8687.095,-6092.102,0
15116.000,-16948.434,-14802.354,-11378.692,-16019.138,-313.282,-16694.361,-8687.899,-6094.628,0
15116.000,-16940.297,-14794.888,-11372.009,-16009.235,-314.109,-16689.266,-8689.151,-6094.114,0
15116.001,-16930.865,-14785.724,-11364.454,-15998.373,-312.455,-16682.648,-8690.180,-6093.220,0
15116.001,-16930.396,-14786.015,-11367.136,-16001.837,-314.243,-16687.410,-8692.057,-6095.142,0
15116.001,-16935.559,-14792.697,-11374.624,-16011.091,-319.116,-16697.066,-8695.611,-6098.048,0
15116.001,-16934.822,-14793.189,-11375.183,-16011.807,-320.390,-16698.922,-8694.672,-6096.460,0
15116.059,-16928.518,-14787.400,-11370.712,-16003.089,-321.999,-16694.607,-8694.404,-6096.751,0
15116.059,-16923.602,-14781.589,-11367.024,-15995.847,-323.229,-16691.590,-8695.544,-6099.836,0
15116.059,-16925.791,-14780.359,-11370.310,-16001.055,-324.681,-16695.904,-8698.293,-6104.530,0
15116.059,-16928.943,-14782.706,-11374.669,-16010.085,-326.045,-16703.705,-8700.417,-6108.598,0
15116.059,-16929.301,-14782.371,-11377.306,-16014.265,-327.297,-16707.438,-8702.518,-6112.174,0
15116.059,-16924.092,-14778.235,-11370.824,-16004.095,-323.743,-16699.703,-8700.774,-6109.000,0
15116.059,-16922.439,-14776.738,-11365.840,-15995.557,-321.217,-16693.736,-8701.355,-6109.179,0
15116.059,-16928.406,-14781.745,-11370.958,-16001.167,-320.077,-16696.887,-8703.211,-6113.694,0
15116.060,-16935.895,-14789.300,-11378.714,-16011.561,-320.301,-16703.660,-8703.255,-6115.996,0
15116.060,-16941.662,-14796.788,-11384.146,-16017.707,-322.022,-16707.057,-8701.222,-6112.889,0
15116.060,-16939.047,-14795.715,-11378.424,-16009.884,-320.546,-16700.732,-8697.020,-6107.547,0
15116.060,-16938.531,-14795.760,-11375.026,-16002.083,-317.350,-16694.965,-8696.617,-6107.949,0
15116.060,-16944.344,-14800.565,-11380.413,-16007.783,-318.065,-16700.105,-8704.484,-6114.230,0
15116.060,-16951.115,-14806.443,-11388.080,-16018.869,-322.335,-16710.701,-8711.727,-6122.389,0
15116.060,-16950.602,-14806.020,-11389.130,-16020.657,-323.631,-16713.896,-8713.984,-6124.758,0
15116.119,-16941.035,-14798.084,-11379.676,-16008.900,-321.016,-16705.336,-8709.938,-6120.735,0
15116.119,-16933.502,-14790.283,-11373.842,-15999.781,-320.837,-16699.592,-8712.174,-6123.082,0
15116.120,-16934.777,-14790.619,-11376.971,-16004.788,-322.625,-16705.000,-8716.890,-6128.334,0
15116.120,-16939.471,-14795.826,-11383.811,-16014.757,-323.296,-16711.393,-8718.298,-6128.133,0
15116.120,-16940.678,-14798.330,-11385.666,-16017.015,-322.938,-16713.137,-8718.611,-6129.653,0
15116.120,-16935.381,-14794.642,-11380.614,-16008.498,-323.363,-16708.510,-8719.394,-6130.837,0
15116.120,-16926.842,-14786.171,-11373.082,-15996.495,-321.418,-16701.246,-8717.649,-6127.820,0
15116.120,-16926.328,-14785.701,-11375.115,-15999.513,-323.899,-16704.777,-8717.225,-6125.764,0
15116.121,-16930.574,-14788.830,-11380.391,-16008.431,-326.559,-16712.041,-8716.845,-6125.942,0
15116.121,-16932.295,-14788.004,-11381.776,-16011.493,-328.660,-16713.852,-8717.828,-6129.005,0
15116.121,-16927.178,-14781.097,-11374.468,-16003.156,-329.018,-16707.639,-8716.442,-6127.552,0
15116.121,-16922.930,-14775.174,-11368.946,-15995.847,-327.542,-16701.045,-8713.962,-6124.959,0
15116.121,-16926.977,-14778.571,-11372.344,-16001.479,-328.481,-16703.213,-8713.761,-6123.640,0
15116.122,-16932.811,-14784.248,-11377.977,-16010.577,-328.593,-16707.660,-8712.844,-6120.601,0
15116.122,-16936.633,-14788.294,-11382.090,-16014.578,-329.956,-16709.762,-8714.342,-6120.690,0
15116.180,-16929.881,-14783.265,-11376.479,-16006.621,-330.940,-16706.051,-8715.079,-6121.629,0
15116.180,-16921.701,-14774.883,-11369.662,-15996.339,-327.498,-16697.670,-8709.268,-6114.990,0
15116.180,-16928.809,-14781.991,-11377.284,-16002.374,-328.258,-16702.252,-8713.090,-6120.444,0
15116.180,-16940.387,-14793.391,-11387.074,-16014.443,-330.962,-16710.990,-8716.420,-6121.182,0
15116.180,-16940.230,-14793.815,-11386.806,-16016.902,-331.074,-16712.086,-8715.214,-6118.142,0
15116.181,-16932.094,-14785.478,-11379.005,-16007.202,-329.554,-16705.693,-8711.860,-6117.315,0
15116.181,-16928.965,-14781.633,-11374.959,-16001.658,-328.548,-16700.195,-8712.620,-6117.784,0
15116.181,-16929.391,-14780.583,-11377.262,-16006.174,-325.955,-16700.262,-8713.403,-6118.946,0
15116.181,-16935.514,-14788.450,-11382.380,-16015.896,-326.403,-16707.393,-8712.800,-6119.818,0
15116.181,-16939.158,-14792.966,-11385.800,-16020.702,-328.191,-16712.221,-8715.816,-6123.953,0
15116.182,-16933.213,-14785.902,-11381.084,-16012.611,-326.648,-16706.230,-8715.191,-6125.473,0
15116.182,-16926.842,-14778.214,-11374.579,-16002.754,-320.636,-16695.881,-8708.038,-6115.817,0
15116.182,-16931.133,-14783.802,-11378.446,-16007.895,-321.172,-16701.201,-8712.106,-6120.042,0
15116.182,-16934.955,-14789.390,-11383.117,-16016.165,-322.983,-16710.521,-8717.225,-6129.005,0
15116.182,-16934.955,-14790.462,-11385.777,-16019.897,-325.017,-16715.238,-8719.125,-6133.118,0
15116.240,-16926.104,-14781.119,-11378.804,-16010.688,-324.637,-16708.912,-8715.638,-6128.536,0
15116.240,-16918.594,-14772.290,-11372.702,-16001.636,-323.497,-16701.111,-8712.620,-6125.853,0
15116.240,-16921.879,-14774.928,-11375.049,-16005.012,-323.340,-16702.363,-8710.363,-6124.602,0
15116.240,-16930.373,-14785.857,-11381.776,-16015.740,-324.860,-16709.471,-8709.223,-6123.193,0
15116.240,-16929.859,-14786.662,-11382.983,-16018.713,-325.084,-16709.852,-8708.284,-6120.064,0
15116.240,-16922.572,-14777.118,-11376.523,-16010.019,-324.525,-16701.000,-8704.932,-6116.152,0
15116.240,-16914.750,-14766.322,-11369.886,-15999.223,-320.479,-16691.590,-8703.166,-6114.007,0
15116.240,-16917.029,-14769.071,-11371.674,-16003.312,-320.077,-16695.076,-8703.747,-6116.264,0
15116.240,-16924.049,-14777.432,-11378.110,-16014.176,-322.625,-16704.756,-8705.982,-6119.103,0
15116.240,-16926.484,-14780.807,-11380.771,-16018.087,-324.547,-16709.203,-8707.927,-6120.511,0
15116.241,-16922.506,-14775.979,-11375.942,-16009.370,-325.106,-16704.621,-8707.904,-6120.757,0
15116.241,-16920.539,-14773.431,-11372.836,-16003.268,-325.888,-16701.559,-8708.262,-6120.936,0
15116.241,-16920.762,-14774.548,-11373.707,-16005.570,-324.301,-16702.609,-8707.323,-6118.209,0
15116.241,-16926.574,-14781.477,-11379.631,-16014.422,-324.905,-16708.242,-8705.982,-6115.795,0
15116.241,-16932.252,-14786.998,-11386.135,-16019.741,-326.090,-16712.041,-8707.771,-6118.812,0
15116.299,-16928.631,-14782.572,-11382.425,-16012.029,-325.307,-16708.086,-8710.564,-6125.093,0
15116.299,-16922.326,-14777.141,-11376.479,-16001.859,-323.474,-16702.475,-8712.688,-6125.540,0
15116.300,-16922.797,-14777.432,-11379.027,-16005.593,-324.167,-16706.521,-8714.028,-6124.870,0
15116.300,-16927.490,-14782.527,-11385.330,-16015.852,-325.196,-16714.857,-8714.118,-6126.435,0
15116.300,-16929.412,-14784.718,-11390.024,-16020.635,-328.772,-16719.932,-8717.985,-6130.614,0
15116.300,-16923.646,-14778.861,-11385.241,-16010.756,-326.805,-16712.801,-8713.738,-6126.658,0
15116.300,-16920.428,-14775.151,-11380.569,-16002.709,-324.793,-16704.777,-8709.849,-6118.879,0
15116.301,-16922.037,-14776.627,-11381.508,-16004.944,-323.318,-16705.895,-8709.380,-6119.438,0
15116.301,-16928.361,-14782.438,-11388.035,-16015.405,-325.441,-16712.197,-8709.670,-6120.265,0
15116.301,-16929.391,-14783.020,-11389.421,-16018.713,-327.587,-16714.611,-8710.967,-6121.785,0
15116.301,-16920.963,-14775.353,-11382.312,-16009.348,-326.380,-16707.281,-8708.262,-6118.768,0
15116.301,-16913.588,-14767.127,-11375.496,-15998.977,-323.676,-16699.682,-8706.295,-6114.901,0
15116.302,-16915.666,-14769.071,-11376.681,-16002.329,-322.625,-16701.916,-8706.831,-6115.527,0
15116.302,-16925.322,-14779.510,-11384.437,-16014.287,-325.710,-16711.506,-8708.955,-6118.768,0
15116.302,-16931.133,-14786.148,-11387.945,-16020.076,-328.437,-16715.350,-8710.631,-6121.249,0
15116.359,-16927.355,-14782.527,-11383.096,-16011.873,-328.705,-16711.236,-8712.017,-6123.461,0
15116.359,-16922.193,-14777.654,-11375.719,-16000.854,-326.760,-16704.979,-8715.079,-6128.647,0
15116.359,-16926.328,-14783.623,-11378.424,-16004.475,-324.480,-16706.477,-8713.917,-6127.552,0
15116.360,-16932.475,-14789.501,-11384.839,-16013.080,-323.966,-16712.557,-8715.146,-6126.099,0
15116.360,-16935.715,-14792.206,-11388.325,-16017.797,-325.821,-16716.379,-8717.382,-6128.155,0
15116.360,-16931.805,-14787.668,-11384.727,-16010.264,-325.866,-16712.311,-8720.399,-6131.642,0
15116.360,-16928.160,-14782.349,-11380.793,-16002.262,-325.687,-16708.756,-8723.438,-6135.487,0
15116.361,-16930.484,-14784.494,-11383.162,-16007.001,-326.023,-16714.410,-8725.205,-6139.376,0
15116.361,-16935.381,-14791.580,-11388.526,-16015.494,-327.207,-16720.781,-8725.540,-6140.829,0
15116.361,-16937.951,-14796.542,-11390.494,-16018.444,-328.101,-16723.508,-8723.707,-6140.226,0
15116.361,-16934.285,-14792.317,-11385.465,-16009.884,-327.162,-16717.295,-8719.080,-6134.995,0
15116.361,-16927.244,-14783.242,-11379.541,-15999.244,-323.385,-16707.951,-8716.040,-6131.374,0
15116.361,-16932.207,-14786.640,-11385.644,-16007.381,-326.201,-16713.227,-8720.779,-6136.716,0
15116.362,-16935.492,-14787.378,-11388.795,-16015.740,-325.687,-16718.211,-8718.432,-6135.464,0
15116.362,-16936.990,-14787.624,-11390.092,-16020.390,-325.821,-16719.418,-8714.163,-6130.726,0
15116.419,-16933.682,-14784.494,-11386.313,-16014.645,-326.157,-16714.680,-8709.782,-6126.747,0
15116.419,-16927.512,-14774.436,-11379.385,-16005.012,-325.151,-16707.549,-8705.804,-6123.819,0
15116.419,-16928.184,-14772.224,-11381.218,-16009.235,-326.581,-16710.053,-8705.490,-6124.512,0
15116.420,-16929.033,-14773.811,-11385.330,-16017.752,-328.884,-16716.221,-8706.921,-6124.289,0
15116.420,-16931.604,-14782.371,-11386.851,-16019.651,-330.046,-16719.352,-8711.056,-6128.536,0
15116.420,-16931.201,-14786.953,-11382.938,-16012.544,-328.995,-16713.965,-8710.251,-6127.574,0
15116.420,-16925.902,-14778.750,-11377.574,-16004.497,-329.219,-16707.281,-8709.201,-6124.311,0
15116.420,-16925.277,-14777.141,-11377.552,-16006.531,-328.548,-16707.684,-8707.167,-6121.428,0
15116.420,-16929.725,-14786.036,-11381.754,-16015.695,-330.403,-16714.725,-8708.218,-6123.104,0
15116.420,-16932.654,-14793.145,-11384.324,-16018.869,-331.588,-16717.115,-8709.581,-6123.506,0
15116.420,-16930.082,-14793.972,-11380.860,-16012.454,-332.840,-16712.086,-8711.458,-6125.004,0
15116.420,-16925.658,-14790.641,-11375.652,-16004.564,-331.141,-16706.164,-8711.794,-6126.636,0
15116.420,-16925.992,-14789.836,-11376.591,-16007.604,-329.442,-16709.023,-8711.883,-6129.653,0
15116.421,-16930.262,-14795.514,-11380.637,-16015.517,-330.091,-16716.623,-8711.749,-6128.513,0
15116.421,-16932.273,-14798.330,-11383.297,-16019.540,-332.683,-16720.312,-8713.537,-6130.614,0
15116.480,-16926.932,-14791.848,-11378.915,-16010.733,-333.175,-16715.283,-8715.750,-6133.319,0
15116.480,-16920.182,-14785.165,-11372.680,-16001.435,-331.298,-16710.611,-8716.845,-6133.855,0
15116.480,-16922.617,-14788.384,-11375.607,-16005.190,-331.387,-16715.328,-8719.505,-6137.342,0
15116.480,-16930.484,-14796.653,-11380.815,-16014.802,-331.409,-16721.250,-8719.550,-6136.716,0
15116.480,-16935.156,-14803.828,-11382.782,-16020.322,-333.846,-16724.492,-8718.410,-6136.984,0
15116.481,-16928.586,-14797.995,-11374.445,-16012.477,-335.142,-16721.162,-8717.717,-6138.482,0
15116.481,-16920.674,-14787.132,-11366.532,-16002.664,-333.421,-16713.852,-8718.499,-6138.772,0
15116.481,-16923.064,-14788.271,-11368.812,-16005.593,-333.756,-16715.686,-8721.517,-6140.739,0
15116.481,-16929.301,-14797.279,-11375.049,-16015.271,-337.109,-16723.285,-8722.075,-6141.388,0
15116.481,-16931.334,-14802.152,-11378.469,-16019.473,-338.942,-16726.615,-8722.880,-6141.388,0
15116.481,-16925.389,-14793.815,-11374.400,-16011.024,-336.640,-16720.357,-8721.964,-6138.706,0
15116.482,-16921.076,-14786.707,-11371.539,-16003.559,-334.047,-16714.121,-8721.360,-6137.454,0
15116.482,-16922.752,-14787.825,-11373.707,-16006.509,-332.125,-16714.992,-8720.823,-6135.040,0
15116.482,-16929.926,-14799.626,-11379.698,-16016.098,-333.823,-16721.586,-8721.226,-6134.749,0
15116.482,-16934.219,-14804.544,-11383.609,-16020.814,-336.483,-16725.342,-8722.701,-6135.912,0
15116.540,-16924.205,-14789.390,-11376.568,-16010.130,-333.756,-16718.346,-8721.182,-6136.269,0
15116.540,-16915.934,-14778.102,-11368.410,-16000.139,-331.253,-16711.148,-8718.544,-6134.637,0
15116.540,-16919.064,-14780.784,-11370.310,-16004.430,-331.163,-16712.488,-8718.432,-6134.660,0
15116.540,-16928.340,-14790.016,-11379.296,-16017.260,-333.756,-16721.943,-8719.371,-6137.007,0
15116.540,-16929.637,-14793.994,-11380.547,-16020.188,-331.946,-16723.061,-8713.022,-6131.732,0
15116.541,-16923.221,-14789.971,-11372.947,-16011.270,-328.258,-16715.908,-8706.385,-6126.188,0
15116.541,-16918.504,-14786.260,-11367.940,-16002.933,-325.687,-16708.867,-8703.412,-6124.400,0
15116.541,-16921.434,-14790.104,-11369.572,-16007.023,-326.000,-16712.668,-8702.741,-6125.071,0
15116.541,-16928.652,-14796.989,-11374.602,-16016.366,-327.364,-16720.559,-8703.434,-6126.680,0
15116.541,-16933.771,-14800.409,-11381.263,-16024.011,-332.125,-16727.777,-8707.882,-6131.575,0
15116.541,-16925.188,-14791.133,-11373.216,-16014.153,-328.392,-16718.346,-8703.591,-6128.223,0
15116.542,-16922.059,-14785.634,-11368.745,-16007.135,-327.051,-16712.332,-8702.339,-6127.775,0
15116.542,-16923.869,-14785.522,-11371.696,-16011.382,-326.939,-16715.014,-8702.897,-6127.217,0
15116.542,-16925.680,-14786.729,-11375.719,-16019.160,-328.124,-16719.016,-8702.741,-6125.205,0
15116.542,-16927.244,-14789.367,-11377.642,-16022.804,-329.845,-16721.541,-8704.373,-6125.652,0
15116.600,-16920.314,-14781.477,-11369.908,-16012.768,-326.581,-16712.488,-8703.568,-6123.529,0
15116.600,-16912.873,-14772.357,-11363.984,-16002.150,-324.637,-16704.219,-8704.261,-6121.606,0
15116.600,-16913.252,-14772.224,-11367.896,-16004.854,-325.106,-16704.576,-8705.624,-6121.383,0
15116.600,-16919.869,-14779.688,-11375.339,-16014.712,-328.325,-16712.668,-8708.575,-6123.506,0
15116.600,-16922.439,-14782.170,-11377.529,-16017.685,-330.493,-16716.803,-8709.938,-6125.138,0
15116.600,-16919.221,-14779.220,-11373.327,-16009.728,-329.219,-16711.416,-8707.681,-6123.730,0
15116.601,-16914.324,-14774.369,-11368.410,-16000.631,-327.162,-16705.447,-8707.457,-6124.847,0
15116.601,-16918.170,-14779.644,-11371.003,-16004.542,-326.760,-16708.621,-8707.703,-6125.920,0
15116.601,-16924.049,-14790.641,-11374.602,-16014.020,-326.514,-16713.539,-8705.423,-6123.573,0
15116.601,-16929.145,-14797.883,-11378.535,-16020.367,-326.984,-16715.193,-8699.500,-6117.270,0
15116.601,-16925.143,-14792.272,-11372.165,-16011.851,-324.927,-16707.930,-8692.839,-6111.168,0
15116.601,-16921.992,-14784.517,-11367.203,-16003.022,-323.698,-16701.715,-8695.544,-6113.895,0
15116.602,-16925.926,-14785.612,-11370.489,-16006.084,-322.983,-16703.213,-8699.389,-6120.824,0
15116.602,-16932.139,-14792.184,-11376.502,-16015.673,-325.330,-16711.305,-8703.121,-6125.026,0
15116.602,-16933.369,-14796.430,-11377.396,-16019.384,-327.431,-16716.646,-8703.412,-6125.406,0
15116.660,-16927.268,-14791.021,-11371.025,-16009.370,-325.397,-16709.695,-8700.438,-6121.897,0
15116.660,-16923.848,-14790.418,-11366.957,-16000.988,-325.821,-16706.521,-8701.355,-6124.021,0
15116.660,-16925.992,-14792.496,-11369.192,-16004.006,-327.721,-16710.902,-8702.696,-6126.747,0
15116.660,-16929.256,-14793.189,-11373.126,-16011.918,-327.744,-16715.283,-8700.305,-6123.372,0
15116.661,-16931.760,-14792.385,-11375.094,-16016.098,-328.615,-16717.986,-8699.009,-6120.869,0
15116.661,-16927.311,-14785.344,-11370.354,-16009.057,-328.079,-16711.885,-8697.332,-6119.237,0
15116.661,-16923.578,-14779.666,-11365.103,-16001.882,-325.978,-16704.711,-8697.242,-6119.036,0
15116.661,-16924.719,-14781.410,-11368.075,-16004.989,-323.921,-16706.207,-8697.287,-6117.829,0
15116.661,-16931.066,-14789.031,-11375.764,-16014.153,-325.397,-16713.002,-8698.808,-6119.863,0
15116.661,-16936.967,-14795.201,-11380.368,-16019.183,-328.168,-16717.139,-8702.048,-6121.808,0
15116.661,-16930.709,-14787.780,-11374.893,-16010.465,-326.984,-16709.918,-8701.981,-6120.131,0
15116.661,-16926.619,-14782.349,-11371.473,-16002.955,-326.939,-16702.945,-8703.031,-6119.081,0
15116.661,-16930.195,-14787.109,-11376.166,-16006.800,-328.034,-16705.648,-8704.753,-6120.020,0
15116.661,-16934.822,-14795.022,-11379.966,-16014.645,-328.414,-16711.393,-8705.021,-6119.438,0
15116.661,-16937.883,-14799.962,-11382.536,-16019.183,-329.822,-16714.656,-8704.708,-6120.265,0
15116.719,-16930.686,-14789.993,-11377.149,-16010.577,-327.766,-16707.906,-8703.188,-6119.841,0
15116.720,-16924.652,-14782.192,-11369.818,-16001.077,-325.799,-16701.715,-8703.232,-6120.645,0
15116.720,-16929.949,-14787.892,-11372.813,-16006.531,-326.447,-16705.648,-8701.333,-6121.808,0
15116.720,-16935.627,-14793.994,-11377.642,-16016.098,-326.984,-16711.863,-8700.126,-6122.813,0
15116.720,-16937.279,-14796.207,-11379.317,-16020.971,-326.447,-16714.656,-8699.030,-6122.076,0
15116.720,-16934.396,-14793.726,-11373.082,-16013.975,-324.234,-16707.930,-8696.304,-6116.644,0
15116.720,-16931.066,-14790.149,-11368.142,-16006.308,-324.369,-16703.436,-8699.210,-6120.377,0
15116.720,-16933.771,-14792.876,-11370.913,-16009.795,-324.212,-16706.723,-8702.473,-6124.780,0
15116.720,-16940.275,-14799.447,-11378.647,-16018.400,-325.240,-16713.650,-8705.088,-6127.217,0
15116.720,-16943.896,-14804.432,-11381.307,-16020.546,-325.821,-16715.752,-8703.367,-6127.038,0
15116.720,-16941.461,-14802.912,-11376.077,-16011.203,-324.972,-16709.717,-8699.835,-6124.691,0
15116.720,-16940.074,-14800.677,-11371.271,-16003.604,-323.944,-16703.436,-8698.338,-6121.919,0
15116.720,-16943.830,-14803.896,-11375.295,-16007.001,-323.474,-16704.889,-8700.350,-6123.328,0
15116.721,-16951.920,-14812.725,-11383.609,-16015.785,-323.676,-16710.588,-8701.602,-6125.361,0
15116.721,-16960.258,-14822.246,-11387.477,-16020.926,-325.821,-16713.629,-8702.025,-6126.166,0
15116.779,-16961.777,-14824.660,-11382.291,-16014.488,-326.693,-16709.717,-8703.144,-6126.725,0
15116.779,-16961.285,-14823.453,-11377.529,-16006.397,-325.173,-16703.480,-8704.641,-6126.859,0
15116.779,-16966.852,-14827.521,-11382.045,-16011.404,-324.927,-16704.621,-8704.999,-6126.032,0
15116.779,-16973.602,-14836.574,-11387.923,-16020.501,-325.441,-16709.695,-8703.054,-6122.791,0
15116.780,-16976.799,-14842.050,-11390.359,-16023.787,-324.816,-16710.969,-8700.171,-6119.125,0
15116.780,-16970.896,-14836.775,-11384.459,-16014.779,-322.066,-16704.555,-8697.265,-6116.376,0
15116.780,-16966.516,-14830.539,-11379.027,-16006.330,-320.435,-16698.250,-8694.807,-6114.901,0
15116.780,-16970.584,-14834.495,-11382.604,-16011.091,-320.859,-16700.754,-8693.912,-6115.415,0
15116.780,-16974.451,-14837.915,-11388.013,-16019.294,-320.390,-16705.113,-8693.957,-6115.750,0
15116.780,-16973.355,-14835.591,-11391.075,-16024.547,-322.424,-16708.957,-8698.226,-6120.176,0
15116.780,-16966.762,-14832.059,-11384.570,-16018.177,-322.960,-16705.492,-8697.891,-6120.712,0
15116.780,-16962.449,-14830.584,-11379.251,-16009.906,-323.072,-16699.748,-8695.856,-6118.321,0
15116.780,-16964.594,-14837.915,-11381.620,-16012.388,-323.899,-16703.102,-8698.315,-6120.511,0
15116.780,-16966.605,-14837.938,-11385.219,-16019.138,-324.391,-16710.902,-8698.852,-6120.958,0
15116.780,-16966.986,-14835.031,-11387.230,-16021.261,-325.240,-16714.881,-8700.395,-6121.919,0
15116.840,-16965.354,-14831.857,-11382.895,-16015.047,-326.537,-16712.266,-8703.076,-6125.228,0
15116.840,-16958.469,-14823.878,-11374.624,-16005.146,-323.989,-16703.994,-8702.406,-6126.054,0
15116.840,-16958.000,-14826.292,-11374.735,-16006.732,-321.552,-16702.453,-8701.914,-6124.266,0
15116.840,-16965.891,-14833.758,-11382.201,-16017.438,-323.854,-16709.002,-8701.222,-6123.082,0
15116.840,-16965.510,-14832.662,-11383.229,-16021.619,-324.547,-16712.109,-8699.231,-6121.763,0
15116.841,-16958.023,-14829.533,-11376.948,-16014.176,-323.676,-16706.855,-8698.562,-6122.612,0
15116.841,-16948.367,-14822.067,-11370.198,-16004.430,-322.536,-16699.682,-8697.757,-6121.830,0
15116.841,-16949.127,-14820.815,-11373.663,-16008.744,-323.609,-16703.549,-8699.500,-6124.199,0
15116.841,-16957.352,-14829.421,-11381.866,-16019.809,-326.514,-16712.311,-8701.803,-6127.306,0
15116.841,-16961.443,-14838.250,-11384.615,-16025.396,-328.012,-16715.662,-8700.998,-6126.881,0
15116.841,-16954.625,-14828.438,-11376.904,-16016.634,-324.726,-16708.420,-8694.985,-6121.897,0
15116.842,-16946.109,-14811.965,-11370.489,-16006.174,-320.301,-16698.318,-8692.325,-6118.209,0
15116.842,-16949.932,-14809.148,-11375.965,-16011.694,-321.373,-16699.973,-8694.694,-6119.036,0
15116.842,-16955.273,-14815.250,-11380.748,-16020.747,-323.050,-16704.330,-8694.493,-6117.650,0
15116.842,-16957.799,-14819.386,-11383.006,-16024.346,-324.458,-16706.297,-8695.521,-6117.091,0
15116.900,-16952.100,-14811.540,-11378.894,-16016.366,-325.151,-16702.027,-8697.868,-6118.969,0
15116.900,-16947.338,-14807.584,-11373.104,-16006.375,-323.072,-16696.395,-8699.299,-6120.086,0
15116.900,-16951.652,-14812.814,-11376.188,-16009.728,-322.782,-16699.502,-8700.707,-6121.115,0
15116.900,-16957.084,-14818.782,-11383.297,-16018.512,-324.659,-16708.176,-8703.814,-6124.199,0
15116.901,-16959.564,-14823.118,-11387.186,-16023.071,-326.246,-16711.885,-8704.641,-6125.048,0
15116.901,-16955.006,-14819.967,-11383.051,-16016.075,-325.397,-16706.609,-8704.484,-6124.021,0
15116.901,-16947.518,-14812.277,-11375.898,-16004.766,-321.776,-16698.787,-8703.367,-6122.836,0
15116.901,-16951.764,-14819.452,-11381.396,-16009.683,-322.692,-16705.180,-8709.201,-6129.563,0
15116.901,-16959.363,-14827.187,-11390.874,-16021.261,-325.464,-16716.244,-8713.135,-6134.973,0
15116.902,-16958.045,-14824.235,-11392.170,-16023.697,-324.011,-16717.742,-8708.485,-6130.748,0
15116.902,-16951.160,-14815.943,-11385.599,-16014.556,-322.960,-16712.041,-8706.943,-6130.100,0
15116.902,-16944.500,-14808.366,-11378.513,-16004.653,-322.290,-16706.498,-8709.201,-6133.788,0
15116.902,-16943.584,-14806.063,-11378.491,-16005.838,-320.837,-16707.975,-8709.111,-6135.688,0
15116.902,-16948.166,-14812.211,-11386.627,-16016.701,-323.050,-16716.400,-8708.820,-6135.934,0
15116.902,-16946.467,-14812.166,-11388.415,-16020.971,-323.787,-16719.262,-8708.463,-6136.403,0
15116.960,-16940.768,-14805.482,-11383.632,-16014.287,-324.726,-16712.846,-8707.233,-6135.375,0
15116.960,-16931.850,-14794.329,-11375.607,-16003.938,-323.586,-16704.598,-8705.401,-6132.917,0
15116.961,-16930.574,-14792.362,-11374.825,-16004.386,-320.636,-16704.375,-8703.568,-6130.547,0
15116.961,-16936.744,-14799.336,-11382.604,-16014.108,-322.022,-16710.545,-8705.379,-6131.061,0
15116.961,-16940.365,-14802.510,-11387.789,-16018.690,-325.084,-16715.172,-8707.301,-6132.447,0
15116.961,-16937.236,-14800.118,-11382.224,-16010.778,-324.279,-16709.270,-8705.759,-6130.324,0
15116.961,-16932.697,-14797.548,-11376.412,-16001.882,-322.513,-16701.537,-8705.088,-6129.810,0
15116.962,-16932.855,-14800.833,-11379.362,-16004.653,-322.312,-16702.811,-8706.496,-6131.441,0
15116.962,-16938.486,-14806.020,-11384.503,-16014.779,-324.637,-16709.338,-8708.799,-6132.224,0
15116.962,-16940.029,-14807.092,-11385.174,-16018.623,-325.866,-16713.115,-8710.117,-6132.313,0
15116.963,-16935.045,-14799.090,-11380.904,-16010.711,-326.134,-16709.561,-8713.022,-6134.012,0
15116.963,-16928.229,-14793.859,-11373.998,-15999.445,-324.771,-16703.771,-8715.414,-6134.838,0
15116.963,-16927.848,-14796.095,-11375.115,-16000.094,-324.681,-16706.408,-8717.828,-6138.750,0
15116.964,-16933.861,-14799.693,-11382.269,-16008.900,-326.179,-16714.053,-8720.153,-6140.494,0
15116.964,-16936.408,-14800.297,-11385.688,-16012.432,-326.984,-16718.031,-8720.511,-6140.896,0
15117.020,-16932.006,-14796.743,-11379.943,-16003.827,-325.553,-16712.176,-8718.119,-6138.169,0
15117.021,-16927.043,-14794.865,-11374.177,-15996.048,-324.123,-16705.738,-8715.303,-6134.414,0
15117.021,-16928.406,-14797.480,-11376.546,-16000.027,-323.899,-16707.281,-8713.582,-6133.028,0
15117.021,-16933.838,-14797.436,-11383.207,-16010.733,-324.905,-16713.584,-8715.728,-6132.894,0
15117.021,-16934.732,-14798.509,-11383.006,-16013.460,-323.653,-16714.389,-8714.028,-6132.224,0
15117.021,-16930.598,-14795.245,-11377.061,-16006.441,-322.737,-16709.023,-8711.973,-6130.458,0
15117.021,-16927.178,-14791.043,-11373.819,-15999.043,-323.564,-16704.822,-8714.007,-6132.425,0
15117.021,-16928.027,-14790.127,-11377.574,-16001.233,-323.005,-16705.604,-8714.186,-6132.581,0
15117.021,-16933.057,-14792.831,-11384.235,-16010.421,-324.592,-16712.600,-8716.890,-6135.219,0
15117.021,-16934.174,-14794.687,-11387.208,-16015.405,-327.788,-16719.105,-8720.802,-6140.046,0
15117.021,-16930.283,-14794.374,-11384.190,-16007.604,-328.012,-16715.260,-8720.533,-6141.701,0
15117.022,-16925.613,-14790.574,-11379.966,-15998.149,-326.157,-16708.309,-8720.019,-6140.046,0
15117.022,-16924.629,-14789.010,-11381.195,-16000.697,-325.263,-16709.002,-8719.706,-6139.152,0
15117.022,-16929.971,-14795.559,-11387.923,-16011.024,-328.369,-16715.172,-8721.248,-6141.052,0
15117.022,-16932.943,-14797.480,-11390.427,-16015.271,-329.264,-16717.541,-8720.846,-6141.701,0
15117.081,-16929.523,-14791.781,-11383.944,-16007.358,-325.598,-16711.527,-8717.493,-6138.839,0
15117.081,-16925.277,-14783.153,-11377.730,-15998.574,-323.184,-16703.078,-8715.816,-6136.403,0
15117.081,-16927.512,-14786.036,-11379.810,-16002.419,-323.966,-16706.521,-8716.376,-6138.638,0
15117.081,-16932.496,-14789.076,-11385.777,-16011.717,-324.458,-16712.176,-8714.229,-6136.202,0
15117.081,-16933.703,-14790.529,-11388.571,-16015.829,-325.397,-16713.986,-8710.229,-6130.681,0
15117.081,-16929.189,-14787.154,-11384.324,-16008.588,-326.090,-16710.209,-8711.905,-6133.811,0
15117.081,-16922.326,-14782.236,-11376.523,-15997.121,-323.564,-16703.861,-8714.453,-6135.263,0
15117.081,-16924.920,-14784.695,-11380.748,-16001.100,-324.123,-16707.684,-8717.292,-6138.258,0
15117.081,-16931.760,-14791.960,-11390.069,-16012.745,-327.162,-16717.025,-8720.466,-6142.125,0
15117.082,-16936.900,-14798.420,-11395.076,-16019.495,-331.163,-16724.805,-8724.489,-6146.596,0
15117.082,-16930.887,-14792.362,-11388.639,-16010.711,-329.308,-16718.479,-8722.254,-6143.444,0
15117.082,-16923.668,-14786.015,-11381.374,-16000.854,-327.542,-16710.588,-8721.293,-6142.058,0
15117.082,-16925.389,-14790.351,-11383.274,-16005.033,-329.509,-16714.299,-8724.020,-6145.590,0
15117.082,-16929.301,-14795.871,-11386.896,-16013.952,-331.298,-16722.391,-8724.959,-6147.378,0
15117.082,-16930.039,-14796.452,-11389.152,-16018.758,-331.678,-16725.096,-8723.863,-6145.634,0
15117.140,-16924.674,-14789.300,-11383.788,-16011.605,-329.733,-16718.971,-8721.137,-6141.723,0
15117.140,-16919.756,-14785.500,-11378.535,-16004.140,-328.995,-16712.846,-8720.421,-6141.321,0
15117.140,-16919.936,-14789.166,-11380.704,-16006.240,-328.504,-16713.494,-8720.131,-6141.902,0
15117.140,-16928.160,-14796.899,-11387.700,-16016.857,-331.052,-16721.072,-8722.299,-6144.718,0
15117.140,-16930.775,-14796.542,-11391.053,-16022.646,-332.370,-16722.123,-8722.902,-6144.115,0
15117.140,-16924.137,-14790.172,-11385.531,-16015.271,-330.649,-16715.037,-8721.069,-6141.522,0
15117.140,-16917.119,-14783.601,-11378.066,-16004.788,-329.018,-16708.219,-8719.326,-6140.829,0
15117.140,-16916.023,-14782.729,-11379.184,-16007.336,-327.967,-16709.338,-8716.219,-6136.113,0
15117.141,-16919.488,-14785.724,-11385.621,-16016.500,-327.520,-16713.047,-8715.414,-6134.749,0
15117.141,-16924.428,-14789.591,-11391.768,-16021.999,-328.481,-16716.736,-8718.008,-6138.728,0
15117.141,-16922.506,-14790.529,-11388.460,-16014.623,-329.912,-16714.188,-8721.137,-6142.259,0
15117.141,-16913.207,-14781.097,-11379.184,-16001.771,-327.386,-16707.729,-8722.344,-6143.131,0
15117.141,-16914.191,-14779.867,-11382.156,-16004.408,-328.392,-16710.701,-8723.953,-6145.634,0
15117.141,-16922.551,-14786.216,-11391.745,-16015.338,-331.208,-16719.307,-8727.194,-6149.010,0
15117.141,-16927.938,-14789.523,-11395.120,-16020.702,-333.354,-16723.352,-8727.819,-6149.904,0
15117.200,-16923.668,-14782.192,-11387.186,-16011.247,-330.828,-16715.551,-8723.617,-6146.037,0
15117.200,-16920.740,-14775.285,-11380.949,-16002.440,-328.280,-16707.615,-8720.198,-6141.656,0
15117.200,-16927.580,-14779.756,-11387.990,-16008.789,-329.621,-16710.768,-8721.114,-6140.136,0
15117.201,-16934.979,-14786.953,-11394.830,-16017.841,-329.487,-16715.461,-8718.611,-6136.828,0
15117.201,-16939.314,-14790.842,-11400.373,-16023.317,-332.169,-16719.016,-8719.817,-6138.817,0
15117.201,-16936.900,-14787.311,-11399.523,-16016.612,-333.957,-16715.416,-8727.552,-6145.344,0
15117.201,-16928.631,-14780.448,-11391.254,-16005.727,-331.298,-16708.621,-8730.524,-6148.764,0
15117.201,-16927.781,-14779.040,-11390.538,-16007.358,-328.615,-16708.465,-8727.172,-6146.350,0
15117.202,-16934.105,-14783.824,-11396.729,-16016.567,-330.247,-16715.172,-8727.887,-6146.395,0
15117.202,-16937.123,-14788.674,-11399.770,-16021.261,-330.269,-16716.602,-8724.690,-6142.885,0
15117.202,-16934.375,-14787.713,-11393.668,-16014.399,-327.475,-16708.131,-8718.164,-6134.838,0
15117.202,-16928.920,-14780.113,-11386.001,-16003.425,-323.586,-16699.234,-8715.638,-6133.408,0
15117.202,-16930.977,-14782.907,-11389.756,-16006.464,-325.821,-16702.363,-8717.828,-6135.912,0
15117.203,-16935.381,-14787.780,-11396.372,-16016.075,-330.113,-16711.482,-8720.601,-6139.465,0
15117.203,-16937.682,-14789.858,-11396.126,-16019.674,-331.163,-16715.617,-8719.550,-6139.622,0
15117.260,-16935.111,-14787.222,-11389.979,-16011.873,-329.420,-16709.113,-8717.516,-6137.208,0
15117.260,-16929.926,-14783.556,-11383.632,-16001.122,-326.760,-16701.135,-8716.152,-6135.107,0
15117.261,-16930.217,-14786.908,-11386.694,-16003.201,-325.598,-16703.146,-8714.543,-6132.693,0
15117.261,-16934.822,-14790.864,-11394.763,-16013.729,-326.917,-16710.365,-8716.331,-6133.877,0
15117.261,-16937.727,-14795.446,-11399.457,-16019.830,-328.347,-16713.449,-8716.442,-6137.141,0
15117.261,-16934.732,-14793.323,-11396.842,-16014.958,-330.135,-16709.762,-8718.589,-6138.571,0
15117.261,-16926.775,-14781.901,-11391.388,-16003.938,-328.392,-16701.514,-8720.779,-6138.236,0
15117.261,-16928.295,-14779.577,-11394.294,-16007.135,-329.420,-16704.957,-8721.003,-6140.114,0
15117.262,-16932.541,-14782.595,-11398.630,-16016.656,-332.661,-16714.277,-8720.779,-6142.572,0
15117.262,-16931.379,-14784.584,-11398.250,-16018.959,-334.092,-16717.943,-8720.242,-6143.399,0
15117.262,-16923.422,-14778.906,-11390.739,-16009.325,-332.907,-16713.002,-8719.930,-6142.147,0
15117.262,-16915.486,-14770.681,-11384.771,-15998.306,-331.901,-16706.453,-8722.500,-6141.857,0
15117.262,-16917.186,-14773.028,-11389.421,-16001.233,-332.728,-16708.689,-8725.830,-6140.963,0
15117.263,-16921.812,-14776.648,-11395.143,-16010.376,-332.885,-16714.209,-8726.434,-6139.287,0
15117.263,-16921.344,-14777.387,-11395.255,-16013.058,-331.901,-16713.650,-8719.952,-6132.849,0
15117.320,-16916.852,-14771.128,-11391.455,-16007.225,-332.214,-16707.572,-8717.896,-6129.765,0
15117.321,-16909.697,-14759.147,-11385.397,-15997.211,-329.889,-16698.967,-8716.376,-6128.200,0
15117.321,-16911.934,-14761.896,-11387.052,-16001.748,-329.107,-16701.604,-8718.320,-6130.234,0
15117.321,-16917.699,-14770.055,-11392.103,-16011.024,-329.487,-16707.975,-8717.672,-6128.781,0
15117.321,-16920.182,-14776.671,-11393.646,-16014.645,-331.588,-16713.338,-8718.253,-6131.307,0
15117.321,-16914.615,-14771.352,-11387.186,-16007.671,-331.789,-16710.365,-8717.762,-6133.833,0
15117.321,-16906.502,-14761.785,-11379.317,-15997.725,-329.822,-16702.811,-8715.437,-6132.805,0
15117.321,-16909.252,-14765.429,-11381.352,-16001.100,-328.638,-16704.441,-8714.208,-6132.156,0
15117.321,-16917.678,-14774.503,-11388.504,-16010.600,-329.956,-16710.768,-8715.996,-6135.755,0
15117.321,-16921.254,-14778.683,-11389.577,-16013.438,-328.437,-16711.371,-8713.470,-6131.419,0
15117.321,-16918.951,-14777.096,-11384.437,-16007.560,-326.581,-16705.582,-8710.743,-6128.021,0
15117.321,-16917.969,-14776.470,-11379.251,-16000.206,-323.832,-16699.123,-8709.604,-6128.267,0
15117.321,-16922.641,-14775.486,-11382.380,-16003.715,-323.005,-16700.129,-8708.307,-6126.591,0
15117.322,-16921.924,-14768.915,-11387.253,-16009.861,-321.977,-16703.570,-8706.184,-6125.540,0
15117.322,-16920.674,-14771.061,-11383.699,-16008.812,-316.881,-16702.766,-8702.562,-6121.673,0
15117.381,-16918.750,-14771.664,-11376.859,-15998.977,-312.589,-16696.574,-8700.350,-6118.924,0
15117.381,-16912.312,-14764.512,-11370.556,-15988.807,-309.840,-16688.572,-8698.896,-6117.024,0
15117.381,-16915.264,-14766.948,-11374.914,-15992.204,-308.722,-16690.115,-8698.562,-6116.309,0
15117.381,-16920.539,-14776.157,-11380.078,-16000.787,-309.572,-16696.775,-8699.813,-6117.918,0
15117.381,-16924.920,-14783.645,-11382.312,-16004.944,-311.807,-16701.760,-8702.607,-6121.003,0
15117.381,-16922.975,-14783.063,-11379.229,-15998.730,-312.388,-16697.893,-8702.384,-6120.601,0
15117.381,-16915.465,-14776.112,-11374.423,-15989.209,-311.449,-16690.092,-8702.809,-6119.416,0
15117.381,-16916.492,-14774.593,-11373.686,-15991.689,-311.784,-16690.473,-8704.261,-6118.276,0
15117.381,-16920.918,-14777.319,-11377.888,-16000.250,-311.829,-16696.127,-8702.897,-6117.829,0
15117.381,-16923.244,-14780.672,-11381.955,-16005.771,-312.768,-16699.525,-8703.031,-6117.829,0
15117.381,-16917.924,-14777.654,-11374.959,-15998.261,-309.616,-16693.043,-8699.009,-6113.470,0
15117.382,-16913.453,-14773.072,-11369.908,-15990.595,-309.773,-16689.734,-8700.395,-6114.051,0
15117.382,-16912.492,-14772.514,-11370.712,-15990.796,-309.125,-16691.926,-8701.378,-6115.907,0
15117.382,-16917.455,-14780.717,-11377.642,-15999.445,-310.622,-16700.463,-8703.479,-6120.667,0
15117.382,-16921.545,-14783.063,-11382.536,-16005.369,-311.628,-16705.180,-8706.496,-6123.126,0
15117.441,-16915.219,-14773.788,-11375.786,-15996.719,-309.818,-16697.625,-8706.250,-6122.232,0
15117.441,-16907.352,-14765.540,-11367.963,-15985.878,-306.711,-16688.617,-8705.513,-6120.779,0
15117.441,-16909.520,-14770.122,-11370.646,-15989.901,-305.437,-16691.568,-8708.061,-6122.746,0
15117.441,-16914.883,-14772.491,-11374.893,-15998.351,-305.235,-16696.127,-8706.966,-6121.785,0
15117.441,-16918.795,-14775.486,-11378.312,-16003.782,-306.778,-16699.234,-8706.139,-6122.188,0
15117.442,-16914.973,-14773.140,-11373.439,-15996.339,-306.129,-16693.355,-8705.267,-6122.434,0
15117.442,-16912.180,-14770.479,-11368.969,-15987.957,-305.973,-16686.203,-8707.100,-6122.053,0
15117.442,-16915.555,-14771.352,-11372.545,-15990.438,-305.928,-16687.590,-8708.284,-6122.232,0
15117.442,-16921.947,-14776.225,-11381.575,-16000.362,-309.907,-16698.094,-8712.196,-6126.948,0
15117.442,-16925.211,-14779.532,-11385.979,-16005.794,-311.829,-16704.039,-8713.537,-6130.391,0
15117.442,-16920.428,-14774.392,-11379.742,-15996.897,-308.968,-16698.475,-8709.647,-6128.088,0
15117.442,-16915.041,-14768.065,-11373.060,-15986.013,-306.867,-16690.830,-8709.625,-6126.993,0
15117.442,-16917.566,-14771.150,-11375.316,-15989.074,-305.817,-16692.617,-8710.899,-6126.054,0
15117.442,-16920.428,-14777.654,-11380.033,-15996.518,-305.772,-16698.139,-8712.464,-6126.859,0
15117.442,-16922.684,-14780.002,-11383.207,-16001.771,-309.147,-16701.291,-8713.872,-6127.261,0
15117.501,-16916.783,-14771.642,-11378.446,-15994.260,-308.834,-16693.668,-8713.090,-6123.708,0
15117.501,-16908.916,-14762.053,-11369.818,-15981.542,-304.498,-16681.039,-8707.904,-6115.840,0
15117.502,-16910.301,-14761.069,-11371.606,-15984.001,-303.403,-16680.279,-8703.434,-6109.224,0
15117.502,-16916.225,-14766.837,-11378.692,-15995.333,-306.264,-16686.516,-8702.562,-6105.871,0
15117.502,-16916.314,-14768.223,-11379.519,-15999.356,-307.001,-16689.020,-8703.076,-6105.580,0
15117.502,-16910.012,-14763.573,-11372.612,-15991.198,-305.682,-16683.924,-8702.339,-6107.614,0
15117.502,-16903.217,-14756.555,-11366.667,-15981.542,-304.677,-16678.268,-8701.623,-6109.045,0
15117.503,-16903.664,-14756.823,-11368.924,-15983.554,-303.693,-16678.223,-8701.355,-6105.804,0
15117.503,-16909.855,-14763.841,-11373.484,-15993.009,-305.258,-16685.332,-8701.892,-6107.436,0
15117.503,-16914.012,-14766.367,-11374.735,-15998.462,-305.906,-16689.758,-8701.623,-6108.866,0
15117.503,-16910.459,-14762.009,-11370.020,-15991.846,-304.431,-16684.213,-8701.378,-6108.553,0
15117.503,-16905.385,-14758.119,-11366.689,-15982.816,-302.888,-16678.357,-8701.690,-6109.738,0
15117.503,-16906.480,-14758.164,-11370.332,-15986.057,-302.844,-16681.107,-8703.300,-6111.682,0
15117.504,-16911.352,-14762.590,-11375.764,-15994.729,-303.447,-16687.230,-8704.306,-6112.174,0
15117.504,-16915.174,-14766.702,-11378.894,-15998.999,-304.565,-16690.293,-8704.351,-6114.409,0
15117.561,-16914.146,-14768.445,-11377.418,-15995.624,-305.168,-16687.701,-8703.657,-6114.923,0
15117.561,-16909.318,-14763.238,-11370.020,-15986.393,-303.805,-16682.492,-8701.064,-6113.962,0
15117.561,-16908.514,-14761.562,-11370.869,-15987.577,-302.509,-16683.320,-8700.506,-6112.777,0
15117.561,-16912.357,-14766.032,-11377.016,-15997.300,-303.671,-16691.299,-8703.188,-6117.248,0
15117.562,-16914.348,-14769.943,-11377.932,-16002.105,-303.872,-16695.211,-8701.422,-6117.359,0
15117.562,-16911.867,-14767.999,-11371.853,-15995.333,-303.447,-16690.271,-8699.254,-6113.783,0
15117.562,-16906.502,-14763.908,-11365.415,-15984.135,-301.570,-16681.777,-8697.757,-6110.609,0
15117.562,-16905.004,-14762.434,-11366.622,-15985.565,-301.346,-16683.096,-8697.556,-6110.833,0
15117.562,-16906.502,-14762.009,-11373.283,-15994.729,-304.431,-16690.875,-8700.573,-6113.023,0
15117.562,-16907.285,-14761.606,-11376.188,-15998.306,-305.034,-16693.133,-8702.138,-6114.923,0
15117.562,-16902.635,-14758.253,-11372.076,-15992.539,-306.375,-16688.527,-8703.434,-6115.482,0
15117.562,-16893.248,-14748.329,-11364.007,-15981.743,-303.648,-16678.291,-8699.679,-6110.140,0
15117.562,-16896.266,-14751.883,-11367.002,-15985.118,-303.559,-16678.984,-8697.846,-6107.033,0
15117.562,-16901.115,-14756.823,-11372.769,-15993.500,-304.118,-16685.488,-8697.399,-6106.273,0
15117.562,-16902.322,-14758.991,-11375.049,-15997.277,-304.721,-16688.639,-8697.153,-6106.407,0
15117.563,-16897.047,-14753.403,-11368.812,-15989.253,-303.023,-16682.984,-8694.918,-6104.105,0
15117.622,-16891.816,-14746.116,-11364.387,-15980.335,-301.100,-16675.676,-8693.644,-6103.859,0
15117.622,-16893.762,-14748.598,-11366.733,-15982.816,-299.558,-16676.346,-8694.471,-6104.619,0
15117.622,-16897.404,-14752.420,-11371.114,-15990.796,-300.452,-16680.682,-8694.516,-6103.792,0
15117.622,-16899.104,-14754.521,-11374.289,-15995.423,-301.391,-16683.252,-8693.845,-6103.926,0
15117.622,-16895.684,-14751.860,-11369.640,-15988.136,-301.190,-16678.738,-8692.951,-6103.904,0
15117.623,-16892.041,-14750.140,-11362.487,-15978.346,-300.162,-16672.547,-8694.046,-6103.568,0
15117.623,-16895.617,-14754.073,-11363.896,-15981.363,-300.251,-16675.430,-8697.176,-6105.424,0
15117.623,-16899.395,-14754.476,-11368.723,-15988.672,-300.854,-16682.604,-8697.176,-6106.273,0
15117.623,-16901.383,-14755.929,-11371.853,-15993.478,-302.285,-16685.957,-8697.601,-6106.117,0
15117.623,-16897.830,-14749.961,-11368.857,-15987.577,-302.419,-16681.309,-8697.533,-6105.312,0
15117.624,-16894.521,-14743.188,-11363.381,-15978.793,-302.643,-16676.391,-8696.259,-6104.485,0
15117.624,-16893.738,-14743.613,-11361.794,-15978.256,-301.234,-16677.396,-8692.683,-6103.077,0
15117.624,-16898.455,-14749.894,-11366.466,-15986.191,-302.084,-16684.080,-8692.728,-6104.462,0
15117.624,-16899.125,-14751.235,-11369.707,-15989.924,-303.850,-16687.545,-8695.745,-6108.330,0
15117.624,-16895.191,-14748.731,-11366.421,-15984.447,-304.610,-16684.348,-8698.941,-6112.129,0
15117.682,-16890.900,-14743.076,-11361.816,-15975.418,-302.509,-16676.168,-8699.545,-6111.056,0
15117.682,-16891.258,-14744.418,-11362.777,-15977.184,-300.698,-16675.162,-8694.627,-6105.982,0
15117.682,-16898.188,-14753.738,-11369.237,-15986.504,-302.263,-16681.889,-8693.733,-6104.060,0
15117.682,-16903.350,-14760.086,-11374.602,-15992.383,-305.325,-16687.902,-8696.371,-6106.206,0
15117.682,-16901.182,-14757.762,-11371.204,-15986.951,-305.817,-16686.002,-8696.215,-6106.653,0
15117.682,-16894.096,-14749.604,-11364.052,-15975.217,-300.989,-16676.814,-8692.393,-6101.780,0
15117.682,-16895.594,-14749.111,-11365.169,-15977.854,-299.156,-16676.859,-8692.526,-6102.518,0
15117.682,-16903.641,-14755.325,-11371.249,-15988.963,-300.676,-16684.996,-8693.286,-6104.843,0
15117.682,-16904.646,-14760.511,-11371.473,-15992.695,-300.296,-16687.992,-8691.387,-6104.261,0
15117.682,-16901.740,-14757.739,-11368.790,-15987.019,-301.816,-16684.035,-8693.331,-6105.468,0
15117.683,-16896.221,-14750.386,-11364.364,-15977.988,-302.196,-16677.820,-8695.856,-6107.301,0
15117.683,-16896.623,-14748.553,-11366.733,-15979.508,-301.234,-16678.939,-8697.823,-6110.520,0
15117.683,-16899.572,-14754.141,-11370.198,-15987.957,-300.854,-16685.867,-8696.661,-6109.670,0
15117.683,-16899.104,-14755.459,-11370.690,-15993.411,-301.033,-16689.557,-8694.672,-6108.061,0
15117.683,-16896.936,-14752.464,-11366.086,-15987.465,-300.117,-16686.383,-8692.079,-6105.848,0
15117.742,-16896.623,-14752.755,-11362.062,-15977.563,-299.782,-16680.795,-8694.002,-6107.413,0
15117.742,-16896.221,-14751.615,-11363.247,-15978.972,-299.804,-16682.582,-8696.952,-6108.978,0
15117.742,-16895.662,-14750.854,-11368.835,-15986.728,-300.743,-16688.260,-8697.377,-6107.815,0
15117.742,-16896.668,-14753.358,-11373.551,-15991.802,-302.643,-16692.439,-8699.411,-6109.224,0
15117.743,-16894.812,-14751.012,-11371.763,-15987.398,-303.581,-16688.639,-8701.467,-6110.386,0
15117.743,-16891.615,-14744.552,-11366.242,-15977.519,-300.609,-16680.123,-8700.483,-6107.994,0
15117.743,-16894.744,-14746.027,-11367.538,-15980.089,-298.597,-16679.498,-8700.081,-6106.675,0
15117.743,-16900.869,-14753.291,-11373.484,-15989.454,-297.211,-16684.729,-8699.254,-6105.893,0
15117.743,-16907.664,-14762.344,-11380.101,-15997.456,-300.720,-16690.785,-8701.847,-6107.860,0
15117.743,-16901.584,-14754.186,-11371.941,-15987.867,-297.569,-16684.102,-8697.891,-6103.233,0
15117.743,-16898.188,-14751.056,-11366.733,-15978.949,-296.138,-16677.240,-8697.310,-6101.400,0
15117.743,-16901.406,-14752.219,-11369.952,-15982.168,-296.317,-16679.342,-8697.846,-6101.467,0
15117.744,-16905.631,-14755.303,-11374.691,-15990.818,-297.211,-16687.053,-8700.551,-6105.625,0
15117.744,-16906.412,-14757.226,-11379.407,-15996.160,-298.776,-16692.059,-8703.568,-6110.989,0
15117.744,-16901.160,-14753.850,-11375.741,-15990.036,-299.223,-16690.316,-8705.804,-6113.761,0
15117.802,-16895.729,-14746.988,-11369.707,-15979.352,-297.658,-16682.693,-8706.026,-6112.397,0
15117.803,-16896.891,-14746.541,-11371.473,-15981.185,-298.865,-16683.342,-8704.864,-6112.800,0
15117.803,-16899.662,-14750.229,-11374.400,-15988.024,-299.647,-16688.035,-8701.690,-6110.564,0
15117.803,-16901.205,-14754.476,-11376.077,-15992.428,-301.257,-16691.434,-8701.109,-6110.363,0
15117.803,-16897.629,-14750.006,-11371.517,-15985.855,-302.397,-16686.986,-8700.260,-6108.776,0
15117.803,-16892.867,-14741.668,-11366.912,-15976.558,-303.157,-16680.883,-8701.222,-6110.788,0
15117.803,-16893.158,-14741.534,-11368.254,-15977.161,-302.687,-16680.102,-8700.841,-6110.609,0
15117.804,-16897.449,-14747.681,-11374.177,-15984.426,-303.850,-16685.555,-8701.824,-6108.598,0
15117.804,-16901.674,-14751.727,-11378.849,-15990.438,-306.532,-16690.740,-8704.932,-6109.425,0
15117.804,-16898.188,-14748.284,-11375.675,-15985.789,-306.644,-16686.986,-8704.887,-6109.000,0
15117.804,-16890.498,-14740.483,-11368.634,-15975.730,-304.811,-16678.895,-8701.735,-6104.619,0
15117.804,-16890.297,-14740.573,-11369.640,-15977.742,-304.095,-16679.072,-8700.282,-6102.451,0
15117.804,-16894.924,-14747.301,-11376.010,-15986.616,-305.370,-16684.684,-8703.501,-6106.295,0
15117.805,-16897.449,-14752.263,-11379.541,-15992.338,-308.611,-16690.361,-8710.185,-6113.448,0
15117.805,-16893.738,-14749.983,-11375.026,-15986.459,-309.952,-16689.311,-8714.699,-6119.572,0
15117.863,-16887.703,-14743.121,-11368.745,-15975.328,-307.828,-16681.576,-8715.437,-6118.701,0
15117.863,-16888.576,-14742.026,-11371.763,-15976.870,-307.560,-16682.158,-8717.561,-6119.952,0
15117.863,-16897.584,-14752.486,-11380.771,-15987.398,-309.236,-16689.398,-8720.578,-6123.663,0
15117.863,-16902.971,-14756.421,-11386.225,-15993.612,-311.226,-16696.037,-8722.590,-6127.485,0
15117.864,-16898.389,-14754.007,-11380.682,-15985.163,-308.991,-16692.260,-8722.165,-6128.066,0
15117.864,-16893.068,-14749.827,-11374.400,-15975.619,-306.129,-16684.438,-8721.092,-6125.518,0
15117.864,-16895.059,-14749.938,-11374.959,-15978.391,-305.951,-16685.600,-8722.389,-6124.289,0
15117.864,-16903.820,-14758.388,-11382.425,-15990.281,-309.661,-16695.166,-8725.428,-6127.507,0
15117.864,-16908.268,-14763.081,-11385.845,-15996.228,-311.628,-16701.045,-8725.920,-6128.982,0
15117.865,-16904.289,-14758.030,-11379.943,-15987.733,-310.242,-16696.127,-8724.668,-6128.334,0
15117.865,-16898.746,-14751.659,-11374.199,-15977.229,-307.918,-16688.461,-8723.998,-6127.842,0
15117.865,-16900.578,-14753.067,-11377.418,-15980.559,-309.169,-16690.785,-8726.836,-6130.167,0
15117.865,-16904.021,-14755.526,-11381.285,-15987.957,-309.818,-16696.574,-8725.183,-6128.334,0
15117.865,-16908.066,-14758.566,-11384.794,-15994.417,-312.455,-16701.715,-8725.025,-6128.468,0
15117.865,-16904.445,-14753.470,-11380.436,-15988.046,-311.382,-16694.787,-8720.287,-6123.596,0
15117.922,-16898.008,-14744.663,-11373.372,-15977.430,-309.594,-16685.465,-8716.600,-6119.505,0
15117.922,-16901.205,-14749.290,-11376.435,-15980.201,-309.706,-16686.113,-8716.666,-6118.656,0
15117.923,-16908.447,-14759.326,-11384.347,-15990.416,-309.482,-16692.373,-8715.884,-6118.209,0
15117.923,-16913.721,-14764.758,-11388.705,-15997.881,-311.784,-16699.211,-8716.532,-6120.511,0
15117.923,-16909.408,-14762.366,-11383.341,-15992.069,-312.053,-16695.926,-8715.549,-6121.003,0
15117.923,-16903.127,-14755.102,-11375.562,-15981.542,-308.767,-16686.047,-8712.643,-6116.689,0
15117.923,-16902.635,-14754.364,-11374.109,-15982.771,-305.235,-16683.521,-8710.072,-6113.493,0
15117.923,-16908.223,-14761.428,-11380.771,-15993.701,-304.788,-16689.668,-8710.832,-6113.806,0
15117.923,-16912.783,-14767.954,-11384.950,-16000.675,-306.174,-16694.004,-8710.318,-6111.928,0
15117.924,-16908.805,-14762.880,-11379.251,-15993.656,-305.012,-16687.545,-8707.256,-6109.782,0
15117.924,-16905.004,-14757.247,-11374.244,-15985.096,-305.191,-16679.676,-8708.508,-6110.185,0
15117.924,-16908.246,-14758.589,-11378.580,-15987.442,-304.677,-16680.727,-8712.353,-6113.984,0
15117.924,-16914.281,-14765.026,-11384.683,-15997.121,-304.185,-16689.020,-8714.252,-6116.778,0
15117.924,-16916.984,-14769.742,-11386.381,-16001.972,-306.442,-16696.307,-8715.079,-6118.231,0
15117.924,-16912.270,-14768.178,-11381.955,-15995.243,-306.420,-16693.422,-8716.600,-6119.215,0
15117.982,-16905.430,-14758.745,-11377.284,-15986.124,-305.258,-16687.365,-8718.343,-6119.662,0
15117.982,-16903.037,-14754.186,-11377.061,-15986.861,-305.034,-16688.662,-8720.712,-6121.204,0
15117.982,-16905.316,-14757.762,-11383.006,-15994.819,-307.582,-16695.680,-8723.350,-6122.545,0
15117.983,-16902.143,-14757.985,-11383.699,-15996.965,-307.873,-16697.445,-8720.332,-6120.466,0
15117.983,-16895.102,-14750.743,-11377.730,-15988.873,-309.102,-16692.932,-8717.717,-6119.215,0
15117.983,-16885.000,-14738.048,-11369.707,-15975.351,-308.119,-16685.107,-8716.711,-6117.740,0
15117.983,-16883.592,-14741.043,-11371.986,-15977.071,-311.025,-16688.572,-8720.019,-6119.460,0
15117.983,-16889.023,-14750.833,-11376.523,-15985.521,-311.717,-16694.385,-8719.550,-6117.918,0
15117.984,-16895.170,-14760.689,-11379.742,-15990.192,-312.410,-16697.646,-8716.555,-6115.504,0
15117.984,-16892.264,-14755.035,-11375.607,-15984.470,-312.544,-16693.467,-8714.186,-6114.051,0
15117.984,-16884.619,-14743.479,-11366.823,-15973.271,-308.767,-16682.805,-8710.452,-6110.050,0
15117.984,-16883.145,-14740.551,-11367.092,-15973.070,-306.912,-16681.531,-8709.223,-6109.201,0
15117.984,-16886.541,-14741.132,-11371.114,-15982.437,-309.102,-16688.215,-8710.609,-6111.437,0
15117.985,-16889.582,-14744.864,-11372.255,-15988.427,-309.706,-16691.098,-8709.670,-6111.235,0
15117.985,-16885.648,-14739.880,-11366.622,-15983.129,-307.158,-16684.906,-8704.373,-6106.139,0
15118.042,-16880.373,-14733.197,-11360.028,-15973.853,-305.861,-16676.793,-8702.249,-6102.585,0
15118.043,-16882.475,-14733.465,-11361.705,-15975.619,-306.644,-16677.174,-8701.735,-6101.892,0
15118.043,-16889.916,-14739.321,-11369.260,-15986.258,-308.320,-16684.125,-8701.087,-6100.909,0
15118.043,-16893.516,-14741.222,-11371.651,-15991.891,-308.745,-16687.521,-8699.835,-6101.266,0
15118.043,-16887.502,-14735.254,-11365.370,-15984.381,-308.052,-16683.498,-8696.952,-6099.679,0
15118.043,-16880.686,-14729.621,-11359.045,-15973.205,-307.582,-16677.598,-8693.756,-6095.879,0
15118.044,-16880.596,-14730.515,-11360.855,-15973.853,-307.895,-16679.900,-8693.510,-6097.042,0
15118.044,-16886.318,-14734.762,-11365.325,-15983.219,-308.543,-16686.068,-8696.080,-6097.757,0
15118.044,-16890.879,-14742.518,-11369.997,-15990.192,-309.996,-16691.031,-8701.222,-6102.294,0
15118.044,-16888.867,-14739.947,-11367.314,-15984.783,-309.683,-16687.164,-8703.232,-6105.066,0
15118.044,-16885.625,-14735.365,-11359.224,-15974.390,-307.471,-16680.146,-8703.523,-6105.178,0
15118.045,-16889.850,-14738.405,-11362.867,-15978.278,-308.834,-16683.678,-8706.250,-6108.598,0
15118.045,-16895.863,-14744.060,-11370.623,-15987.577,-310.712,-16692.172,-8707.972,-6110.587,0
15118.045,-16899.842,-14749.849,-11375.316,-15993.143,-311.740,-16695.322,-8705.088,-6107.078,0
15118.045,-16895.170,-14746.362,-11369.975,-15986.124,-310.175,-16690.115,-8702.518,-6103.412,0
15118.102,-16889.693,-14741.177,-11364.834,-15976.804,-309.929,-16682.381,-8705.356,-6104.574,0
15118.103,-16890.453,-14741.043,-11366.957,-15977.943,-310.265,-16683.432,-8710.117,-6109.425,0
15118.103,-16897.047,-14745.781,-11375.361,-15987.867,-312.053,-16692.373,-8714.051,-6113.448,0
15118.103,-16901.518,-14749.179,-11379.810,-15993.366,-312.880,-16697.691,-8715.034,-6113.895,0
15118.103,-16899.238,-14749.670,-11375.183,-15987.241,-311.583,-16693.244,-8712.017,-6111.861,0
15118.103,-16896.266,-14749.536,-11370.042,-15978.055,-310.175,-16686.225,-8710.676,-6110.564,0
15118.104,-16901.695,-14753.470,-11374.244,-15980.245,-311.449,-16688.461,-8712.866,-6111.235,0
15118.104,-16905.719,-14756.354,-11381.017,-15987.241,-312.567,-16695.725,-8717.672,-6116.242,0
15118.104,-16907.619,-14755.817,-11385.890,-15993.009,-314.958,-16701.312,-8720.891,-6118.164,0
15118.104,-16902.770,-14752.599,-11379.362,-15985.453,-314.735,-16697.670,-8721.449,-6118.142,0
15118.104,-16903.484,-14755.884,-11372.389,-15975.462,-312.477,-16690.584,-8721.114,-6118.812,0
15118.105,-16906.793,-14758.991,-11374.445,-15976.379,-312.120,-16691.098,-8721.226,-6119.930,0
15118.105,-16910.301,-14763.037,-11379.519,-15984.895,-314.310,-16697.982,-8719.035,-6118.969,0
15118.105,-16911.666,-14765.540,-11381.396,-15990.617,-315.763,-16703.033,-8717.739,-6119.662,0
15118.105,-16908.424,-14764.444,-11376.435,-15984.895,-314.981,-16699.168,-8715.034,-6118.343,0
15118.163,-16901.785,-14758.164,-11369.461,-15973.741,-312.924,-16690.650,-8712.800,-6116.667,0
15118.163,-16902.412,-14759.170,-11372.143,-15975.239,-312.276,-16692.014,-8713.403,-6116.689,0
15118.163,-16907.396,-14765.607,-11377.061,-15984.671,-312.835,-16698.766,-8713.761,-6114.454,0
15118.163,-16910.502,-14769.652,-11380.391,-15992.069,-314.355,-16703.033,-8712.464,-6115.169,0
15118.163,-16904.914,-14765.316,-11375.630,-15986.013,-311.852,-16696.730,-8709.581,-6112.733,0
15118.163,-16898.635,-14754.767,-11368.589,-15974.814,-309.438,-16688.236,-8707.323,-6109.134,0
15118.164,-16897.203,-14752.151,-11369.527,-15974.367,-309.236,-16689.645,-8709.514,-6111.124,0
15118.164,-16898.947,-14754.812,-11374.557,-15981.698,-310.198,-16695.770,-8712.979,-6114.029,0
15118.164,-16900.355,-14758.454,-11377.909,-15987.912,-311.270,-16698.922,-8714.073,-6112.956,0
15118.164,-16896.152,-14752.822,-11372.545,-15981.363,-310.041,-16693.445,-8712.688,-6111.012,0
15118.164,-16892.129,-14746.921,-11367.002,-15972.154,-308.052,-16685.578,-8712.732,-6111.437,0
15118.164,-16894.432,-14746.810,-11369.751,-15974.479,-307.649,-16686.182,-8713.738,-6112.084,0
15118.164,-16903.463,-14755.772,-11377.798,-15985.677,-310.577,-16694.160,-8715.615,-6114.320,0
15118.164,-16906.682,-14761.293,-11380.033,-15990.975,-311.628,-16696.842,-8716.040,-6114.029,0
15118.164,-16902.211,-14760.332,-11375.675,-15985.342,-311.807,-16693.445,-8716.241,-6115.594,0
15118.223,-16896.176,-14754.029,-11369.371,-15973.741,-310.510,-16686.785,-8716.465,-6116.130,0
15118.223,-16900.734,-14755.102,-11375.115,-15977.854,-313.796,-16691.434,-8720.198,-6121.003,0
15118.223,-16907.553,-14766.032,-11380.659,-15987.756,-315.987,-16699.637,-8721.517,-6121.562,0
15118.224,-16911.330,-14776.984,-11381.441,-15992.941,-315.607,-16704.062,-8720.287,-6121.338,0
15118.224,-16909.094,-14768.603,-11378.110,-15987.823,-316.188,-16702.699,-8722.522,-6124.512,0
15118.224,-16903.439,-14756.890,-11373.484,-15977.272,-316.210,-16697.602,-8729.451,-6133.788,0
15118.224,-16903.887,-14757.002,-11376.278,-15977.898,-316.657,-16700.576,-8735.554,-6141.455,0
15118.224,-16907.285,-14762.478,-11381.105,-15986.013,-318.110,-16707.527,-8738.772,-6144.316,0
15118.224,-16911.195,-14767.038,-11385.890,-15992.562,-318.155,-16710.857,-8737.252,-6142.796,0
15118.225,-16908.916,-14765.518,-11383.699,-15987.890,-316.478,-16705.783,-8733.676,-6138.169,0
15118.225,-16905.229,-14761.383,-11378.960,-15979.083,-313.304,-16698.117,-8730.122,-6133.229,0
15118.225,-16905.988,-14762.232,-11379.854,-15979.017,-310.086,-16696.395,-8726.725,-6130.458,0
15118.225,-16913.564,-14772.312,-11386.112,-15989.454,-309.952,-16701.559,-8727.261,-6128.848,0
15118.225,-16917.789,-14778.057,-11390.650,-15997.076,-310.510,-16705.225,-8727.507,-6125.585,0
15118.226,-16911.174,-14770.904,-11386.403,-15990.796,-310.510,-16699.859,-8725.048,-6124.289,0
15118.284,-16901.518,-14761.584,-11377.351,-15978.502,-309.482,-16691.299,-8724.042,-6124.691,0
15118.284,-16901.316,-14759.103,-11376.859,-15979.061,-309.326,-16690.428,-8725.764,-6124.087,0
15118.284,-16909.051,-14767.082,-11384.123,-15988.918,-310.890,-16697.223,-8725.093,-6120.667,0
15118.284,-16913.363,-14772.224,-11387.074,-15993.835,-312.746,-16701.916,-8726.813,-6125.294,0
15118.284,-16912.291,-14769.652,-11385.106,-15990.036,-315.249,-16699.346,-8728.267,-6127.485,0
15118.285,-16904.154,-14759.706,-11376.613,-15978.055,-312.835,-16689.131,-8727.663,-6123.037,0
15118.285,-16903.641,-14756.600,-11375.406,-15977.898,-311.427,-16688.729,-8729.943,-6125.138,0
15118.285,-16915.330,-14766.322,-11384.950,-15989.253,-313.953,-16695.457,-8729.071,-6124.400,0
15118.285,-16919.309,-14770.614,-11389.801,-15995.378,-315.853,-16699.525,-8729.094,-6122.791,0
15118.285,-16911.129,-14762.970,-11381.598,-15987.130,-316.031,-16695.391,-8726.747,-6120.735,0
15118.285,-16904.043,-14755.840,-11373.641,-15975.060,-313.327,-16686.650,-8727.082,-6121.092,0
15118.286,-16903.619,-14755.840,-11374.669,-15975.396,-311.069,-16685.398,-8726.680,-6121.517,0
15118.286,-16909.184,-14763.886,-11381.844,-15984.045,-312.410,-16691.590,-8728.423,-6122.858,0
15118.286,-16910.904,-14768.155,-11385.040,-15988.226,-314.288,-16696.686,-8730.233,-6124.110,0
15118.286,-16904.557,-14764.602,-11380.569,-15981.072,-314.556,-16694.271,-8728.624,-6123.461,0
15118.343,-16896.555,-14755.750,-11373.998,-15970.970,-313.707,-16688.953,-8728.401,-6122.724,0
15118.343,-16896.957,-14757.427,-11376.144,-15972.154,-312.902,-16690.473,-8728.624,-6121.338,0
15118.343,-16904.268,-14768.356,-11382.983,-15980.916,-314.020,-16698.318,-8729.898,-6122.567,0
15118.343,-16907.328,-14770.972,-11386.582,-15985.654,-315.249,-16702.520,-8730.301,-6124.981,0
15118.343,-16903.752,-14766.501,-11383.297,-15981.318,-315.763,-16697.803,-8727.932,-6125.652,0
15118.343,-16898.076,-14761.182,-11374.937,-15972.557,-314.176,-16692.193,-8725.518,-6124.691,0
15118.343,-16900.355,-14762.746,-11376.100,-15973.674,-313.416,-16693.893,-8729.184,-6127.597,0
15118.343,-16907.352,-14771.239,-11383.788,-15981.766,-314.400,-16700.463,-8730.391,-6129.765,0
15118.344,-16910.480,-14778.191,-11387.342,-15987.309,-315.048,-16704.777,-8728.513,-6128.938,0
15118.344,-16905.273,-14773.609,-11380.212,-15981.318,-314.064,-16698.787,-8726.993,-6128.536,0
15118.344,-16898.611,-14762.165,-11373.395,-15970.857,-311.337,-16688.350,-8722.590,-6123.238,0
15118.344,-16896.488,-14754.409,-11372.657,-15969.182,-309.281,-16686.494,-8720.757,-6118.097,0
15118.344,-16900.803,-14757.337,-11379.072,-15978.278,-312.075,-16695.770,-8725.629,-6123.886,0
15118.344,-16902.926,-14760.958,-11379.921,-15984.225,-314.020,-16698.631,-8729.161,-6126.479,0
15118.344,-16901.205,-14757.940,-11375.697,-15981.140,-313.684,-16693.178,-8728.781,-6122.389,0
15118.402,-16894.209,-14749.268,-11367.784,-15970.925,-311.315,-16682.426,-8723.081,-6115.482,0
15118.403,-16894.834,-14748.776,-11369.125,-15973.004,-310.354,-16680.928,-8719.505,-6111.437,0
15118.403,-16896.555,-14750.766,-11371.495,-15979.687,-309.438,-16684.191,-8715.705,-6111.503,0
15118.403,-16902.881,-14757.649,-11378.938,-15988.113,-313.237,-16690.518,-8720.868,-6113.336,0
15118.403,-16901.428,-14757.091,-11375.049,-15982.816,-312.500,-16688.305,-8720.734,-6115.146,0
15118.403,-16894.924,-14751.392,-11370.422,-15971.439,-311.472,-16680.637,-8719.058,-6115.393,0
15118.404,-16894.879,-14751.839,-11372.769,-15972.043,-312.187,-16682.402,-8722.254,-6117.091,0
15118.404,-16900.689,-14757.247,-11379.810,-15980.581,-312.612,-16689.311,-8723.126,-6115.415,0
15118.404,-16903.730,-14760.399,-11383.162,-15986.459,-313.774,-16694.115,-8721.808,-6118.253,0
15118.404,-16898.857,-14757.896,-11378.670,-15979.508,-313.394,-16690.449,-8720.220,-6116.979,0
15118.404,-16892.777,-14752.285,-11372.143,-15967.661,-308.722,-16680.549,-8717.896,-6110.654,0
15118.405,-16894.789,-14752.889,-11374.937,-15970.791,-308.745,-16682.135,-8719.482,-6111.124,0
15118.405,-16898.635,-14757.784,-11379.742,-15979.240,-309.125,-16690.227,-8719.975,-6114.208,0
15118.405,-16903.082,-14762.701,-11383.766,-15984.560,-309.750,-16694.988,-8718.008,-6112.286,0
15118.405,-16901.518,-14763.081,-11380.458,-15980.604,-310.779,-16693.266,-8719.170,-6112.464,0
15118.463,-16895.191,-14754.521,-11371.473,-15969.271,-308.096,-16685.377,-8717.337,-6113.739,0
15118.463,-16897.137,-14754.543,-11374.445,-15970.232,-306.577,-16683.879,-8720.354,-6110.006,0
15118.463,-16903.328,-14760.265,-11381.598,-15978.278,-307.448,-16689.422,-8719.415,-6107.547,0
15118.463,-16907.418,-14763.596,-11385.554,-15983.822,-308.879,-16694.316,-8720.846,-6110.989,0
15118.463,-16907.910,-14763.417,-11382.090,-15980.290,-309.952,-16691.254,-8723.617,-6113.917,0
15118.464,-16902.479,-14756.264,-11375.429,-15969.695,-309.639,-16682.918,-8728.445,-6119.058,0
15118.464,-16898.344,-14750.117,-11373.551,-15968.399,-309.192,-16683.365,-8732.469,-6122.210,0
15118.464,-16903.082,-14757.605,-11379.541,-15977.898,-311.069,-16690.494,-8736.403,-6123.484,0
15118.464,-16907.105,-14763.641,-11383.542,-15985.208,-311.896,-16693.982,-8727.283,-6123.148,0
15118.464,-16904.334,-14760.667,-11377.753,-15979.128,-309.840,-16687.521,-8717.672,-6118.723,0
15118.465,-16900.088,-14753.872,-11370.802,-15969.338,-308.409,-16677.352,-8713.291,-6107.301,0
15118.465,-16900.848,-14750.273,-11373.618,-15971.573,-309.460,-16677.217,-8716.085,-6105.066,0
15118.465,-16904.670,-14753.135,-11377.105,-15978.524,-308.275,-16683.654,-8721.182,-6109.782,0
15118.465,-16909.027,-14756.532,-11381.665,-15985.007,-309.058,-16688.594,-8719.751,-6111.369,0
15118.465,-16899.842,-14745.245,-11374.267,-15977.496,-308.186,-16684.035,-8713.648,-6107.592,0
15118.523,-16891.258,-14739.880,-11363.225,-15965.248,-304.073,-16676.637,-8708.239,-6098.718,0
15118.523,-16899.305,-14756.309,-11365.639,-15968.086,-303.291,-16681.152,-8710.944,-6103.435,0
15118.523,-16907.127,-14768.379,-11370.757,-15976.289,-303.134,-16688.752,-8710.788,-6106.921,0
15118.523,-16909.475,-14768.781,-11373.104,-15981.811,-303.894,-16694.719,-8713.090,-6106.787,0
15118.523,-16907.463,-14766.702,-11370.467,-15978.436,-305.101,-16694.094,-8711.727,-6108.262,0
15118.524,-16901.875,-14764.266,-11362.219,-15967.058,-303.492,-16686.627,-8710.229,-6108.374,0
15118.524,-16900.221,-14772.670,-11360.185,-15966.499,-302.643,-16687.566,-8713.022,-6110.453,0
15118.524,-16904.758,-14779.019,-11364.499,-15974.837,-302.888,-16694.764,-8714.453,-6112.129,0
15118.524,-16910.459,-14777.453,-11368.589,-15980.335,-303.693,-16697.803,-8712.397,-6111.950,0
15118.524,-16910.861,-14773.854,-11367.337,-15975.552,-304.408,-16695.100,-8711.234,-6111.458,0
15118.524,-16906.256,-14766.814,-11360.520,-15964.085,-302.710,-16687.701,-8718.320,-6114.119,0
15118.524,-16908.312,-14772.066,-11361.660,-15965.829,-303.268,-16688.953,-8723.528,-6115.929,0
15118.524,-16913.564,-14784.718,-11366.242,-15974.725,-303.291,-16695.211,-8718.097,-6114.141,0
15118.524,-16916.113,-14794.307,-11368.634,-15981.653,-304.900,-16701.783,-8719.661,-6123.193,0
15118.524,-16913.588,-14788.339,-11365.571,-15978.368,-303.693,-16695.992,-8710.497,-6115.594,0
15118.583,-16909.318,-14781.209,-11360.363,-15969.315,-301.547,-16687.074,-8706.161,-6112.331,0
15118.583,-16910.123,-14774.436,-11362.644,-15970.836,-304.207,-16688.908,-8714.096,-6123.841,0
15118.584,-16914.504,-14775.554,-11368.880,-15979.955,-305.973,-16690.137,-8712.375,-6104.619,0
15118.584,-16916.807,-14777.789,-11373.931,-15985.252,-308.476,-16693.043,-8711.168,-6103.188,0
15118.584,-16913.432,-14780.158,-11369.685,-15979.776,-308.499,-16689.668,-8707.100,-6103.390,0
15118.584,-16908.223,-14776.090,-11362.531,-15968.868,-305.347,-16681.732,-8707.100,-6103.859,0
15118.584,-16911.352,-14776.492,-11366.622,-15971.037,-305.258,-16683.879,-8713.313,-6110.564,0
15118.585,-16915.801,-14778.549,-11371.517,-15979.307,-305.437,-16690.383,-8714.632,-6111.012,0
15118.585,-16918.014,-14780.247,-11373.484,-15984.716,-304.900,-16694.160,-8715.191,-6109.939,0
15118.585,-16912.402,-14776.537,-11367.695,-15978.748,-302.173,-16690.605,-8711.056,-6106.027,0
15118.585,-16902.971,-14768.603,-11361.816,-15967.997,-302.397,-16685.756,-8717.247,-6114.812,0
15118.585,-16901.227,-14767.373,-11361.079,-15966.969,-305.280,-16689.512,-8720.980,-6132.044,0
15118.585,-16907.664,-14774.928,-11364.477,-15974.792,-305.459,-16693.445,-8720.131,-6119.438,0
15118.586,-16911.531,-14780.203,-11368.656,-15981.766,-307.024,-16696.352,-8729.451,-6109.313,0
15118.586,-16904.088,-14773.721,-11363.560,-15975.418,-307.649,-16692.818,-8728.110,-6116.242,0
15118.643,-16895.482,-14763.439,-11355.781,-15964.711,-306.867,-16683.543,-8721.584,-6104.664,0
15118.643,-16893.650,-14758.856,-11356.296,-15964.577,-308.007,-16684.615,-8725.361,-6103.144,0
15118.643,-16898.680,-14765.138,-11363.046,-15973.249,-310.220,-16693.691,-8723.662,-6108.150,0
15118.643,-16904.625,-14772.066,-11366.086,-15979.754,-308.879,-16698.229,-8697.443,-6103.010,0
15118.644,-16901.451,-14770.479,-11360.185,-15972.914,-305.839,-16695.232,-8694.068,-6108.374,0
15118.644,-16894.342,-14761.159,-11353.367,-15961.671,-303.403,-16687.947,-8706.184,-6114.700,0
15118.644,-16897.875,-14763.976,-11356.608,-15964.197,-300.251,-16684.840,-8713.022,-6107.882,0
15118.644,-16910.234,-14780.762,-11367.047,-15977.206,-301.123,-16690.115,-8713.381,-6102.853,0
15118.644,-16911.240,-14783.802,-11370.668,-15982.548,-303.291,-16695.457,-8709.894,-6107.391,0
15118.644,-16900.713,-14770.547,-11366.063,-15975.597,-303.246,-16691.410,-8714.699,-6110.274,0
15118.645,-16892.018,-14756.286,-11358.017,-15963.772,-300.117,-16681.576,-8730.502,-6104.194,0
15118.645,-16896.221,-14757.807,-11360.453,-15967.103,-298.820,-16681.621,-8713.269,-6102.429,0
15118.645,-16901.293,-14761.092,-11369.036,-15976.893,-302.285,-16689.557,-8705.088,-6109.492,0
15118.645,-16901.875,-14764.579,-11374.244,-15982.324,-306.688,-16696.283,-8715.571,-6113.582,0
15118.645,-16896.779,-14761.137,-11369.908,-15976.870,-306.264,-16691.635,-8715.705,-6111.771,0
15118.703,-16890.096,-14755.370,-11361.928,-15966.365,-304.297,-16684.035,-8719.460,-6112.219,0
15118.703,-16889.783,-14756.197,-11359.916,-15965.918,-303.023,-16684.549,-8721.494,-6110.006,0
15118.703,-16895.371,-14763.528,-11366.376,-15975.552,-304.252,-16693.043,-8716.487,-6113.403,0
15118.703,-16896.980,-14767.016,-11368.611,-15979.218,-302.464,-16694.943,-8718.298,-6114.119,0
15118.704,-16895.996,-14763.350,-11366.891,-15975.149,-304.364,-16692.887,-8722.812,-6114.812,0
15118.704,-16893.068,-14760.354,-11360.297,-15965.940,-302.754,-16683.811,-8725.965,-6102.228,0
15118.704,-16892.689,-14759.482,-11361.102,-15967.281,-301.458,-16685.779,-8717.426,-6105.312,0
15118.704,-16895.996,-14763.126,-11363.135,-15975.261,-303.336,-16694.965,-8708.575,-6117.158,0
15118.704,-16897.516,-14764.803,-11366.220,-15980.760,-307.381,-16701.357,-8715.258,-6123.148,0
15118.704,-16894.879,-14759.773,-11363.313,-15974.881,-307.448,-16695.502,-8718.611,-6115.035,0
15118.704,-16891.928,-14755.861,-11356.273,-15965.561,-306.018,-16686.516,-8724.378,-6110.967,0
15118.704,-16894.633,-14758.410,-11357.927,-15968.332,-305.124,-16687.053,-8724.378,-6113.761,0
15118.704,-16901.652,-14765.093,-11364.432,-15977.631,-302.866,-16690.293,-8716.264,-6109.715,0
15118.705,-16908.000,-14772.938,-11368.902,-15984.492,-304.140,-16694.070,-8719.907,-6113.627,0
15118.705,-16909.877,-14780.382,-11367.561,-15981.386,-304.028,-16689.668,-8717.784,-6109.447,0
15118.763,-16903.820,-14780.448,-11361.950,-15971.395,-302.777,-16683.723,-8718.633,-6112.666,0
15118.764,-16903.193,-14775.151,-11361.995,-15972.400,-302.106,-16686.068,-8717.225,-6112.219,0
15118.764,-16903.193,-14770.703,-11364.968,-15978.301,-302.732,-16692.977,-8725.719,-6119.282,0
15118.764,-16905.273,-14768.401,-11366.577,-15983.889,-303.157,-16696.553,-8722.389,-6116.287,0
15118.764,-16899.037,-14761.227,-11360.967,-15977.675,-301.480,-16690.695,-8722.925,-6113.671,0
15118.764,-16895.416,-14760.802,-11356.273,-15969.964,-302.017,-16683.498,-8729.675,-6111.437,0
15118.765,-16896.488,-14759.259,-11358.553,-15971.417,-303.581,-16684.729,-8729.607,-6107.368,0
15118.765,-16898.680,-14757.226,-11363.604,-15978.859,-303.626,-16691.590,-8713.582,-6103.300,0
15118.765,-16903.217,-14761.874,-11367.985,-15983.800,-304.766,-16697.178,-8716.711,-6106.675,0
15118.765,-16904.670,-14768.804,-11366.197,-15978.547,-305.571,-16696.016,-8725.339,-6112.800,0
15118.765,-16899.551,-14768.178,-11358.419,-15968.086,-304.163,-16689.086,-8720.645,-6112.397,0
15118.765,-16900.734,-14769.943,-11359.269,-15970.120,-303.961,-16690.875,-8723.461,-6114.163,0
15118.766,-16907.127,-14777.342,-11367.985,-15978.972,-305.235,-16697.715,-8727.149,-6116.533,0
15118.766,-16912.672,-14789.792,-11372.612,-15984.381,-305.995,-16701.738,-8725.249,-6117.359,0
15118.766,-16911.129,-14791.088,-11367.874,-15978.838,-305.906,-16698.898,-8724.557,-6118.075,0
15118.824,-16904.021,-14776.872,-11362.599,-15968.623,-304.587,-16691.434,-8727.172,-6114.901,0
15118.824,-16906.725,-14784.047,-11365.191,-15970.031,-303.693,-16691.209,-8728.580,-6113.247,0
15118.824,-16913.922,-14800.431,-11370.087,-15978.771,-305.437,-16699.457,-8725.920,-6117.807,0
15118.824,-16917.387,-14796.318,-11373.462,-15984.738,-307.158,-16705.381,-8725.585,-6122.165,0
15118.824,-16908.580,-14777.588,-11368.500,-15977.787,-304.431,-16699.369,-8725.316,-6120.735,0
15118.825,-16900.869,-14766.456,-11362.599,-15967.930,-303.537,-16692.662,-8727.328,-6118.388,0
15118.825,-16904.781,-14769.362,-11365.259,-15970.254,-304.922,-16693.758,-8727.864,-6113.671,0
15118.825,-16909.027,-14775.353,-11371.182,-15978.167,-305.615,-16699.480,-8727.686,-6116.935,0
15118.825,-16912.135,-14788.361,-11375.295,-15984.962,-308.588,-16703.793,-8729.921,-6120.042,0
15118.825,-16907.709,-14788.384,-11369.014,-15978.301,-307.828,-16698.607,-8729.272,-6119.460,0
15118.825,-16900.311,-14771.776,-11360.654,-15966.991,-304.744,-16689.734,-8728.401,-6117.158,0
15118.826,-16900.578,-14765.473,-11360.363,-15967.841,-304.252,-16688.617,-8729.340,-6117.918,0
15118.826,-16904.512,-14768.401,-11366.622,-15976.714,-306.465,-16695.145,-8731.374,-6120.846,0
15118.826,-16903.551,-14773.520,-11367.650,-15979.821,-305.794,-16697.871,-8729.541,-6119.662,0
15118.826,-16899.842,-14775.084,-11364.521,-15975.552,-307.269,-16694.607,-8726.926,-6116.979,0
15118.884,-16893.717,-14762.746,-11356.296,-15964.823,-305.481,-16686.807,-8724.690,-6114.119,0
15118.884,-16891.727,-14758.812,-11355.535,-15963.526,-303.693,-16685.332,-8725.115,-6114.007,0
15118.884,-16894.857,-14761.941,-11362.062,-15971.707,-305.951,-16691.367,-8723.863,-6114.655,0
15118.884,-16897.963,-14767.619,-11365.370,-15978.189,-306.867,-16695.277,-8721.226,-6113.292,0
15118.884,-16896.645,-14766.166,-11361.504,-15974.345,-306.197,-16692.529,-8715.951,-6110.766,0
15118.884,-16892.645,-14759.326,-11353.166,-15963.639,-303.626,-16683.453,-8711.056,-6102.384,0
15118.885,-16894.924,-14763.171,-11354.552,-15964.421,-302.441,-16683.297,-8710.520,-6099.769,0
15118.885,-16899.506,-14767.172,-11360.542,-15973.920,-304.408,-16693.467,-8712.979,-6107.301,0
15118.885,-16904.400,-14777.319,-11364.364,-15980.782,-305.481,-16700.307,-8713.806,-6111.660,0
15118.885,-16902.658,-14777.208,-11360.677,-15976.088,-305.571,-16699.256,-8719.013,-6113.560,0
15118.885,-16897.248,-14767.753,-11352.540,-15965.538,-303.224,-16692.977,-8716.867,-6116.465,0
15118.885,-16897.047,-14766.032,-11354.619,-15966.052,-301.279,-16692.238,-8716.152,-6116.778,0
15118.885,-16901.965,-14775.599,-11362.979,-15974.680,-301.726,-16696.037,-8718.275,-6112.599,0
15118.885,-16907.195,-14781.924,-11366.733,-15981.386,-303.671,-16701.135,-8719.729,-6112.956,0
15118.885,-16902.545,-14772.827,-11360.766,-15974.546,-302.173,-16695.926,-8719.952,-6110.609,0
15118.943,-16894.990,-14761.785,-11353.166,-15962.432,-299.871,-16685.711,-8720.779,-6111.235,0
15118.944,-16893.492,-14760.399,-11352.272,-15961.135,-298.038,-16684.012,-8721.360,-6112.174,0
15118.944,-16900.311,-14767.864,-11360.162,-15971.573,-301.547,-16693.422,-8723.461,-6113.336,0
15118.944,-16904.268,-14774.749,-11364.543,-15977.921,-302.687,-16697.736,-8722.478,-6112.062,0
15118.944,-16903.932,-14771.687,-11361.861,-15972.534,-302.509,-16693.244,-8721.852,-6110.229,0
15118.944,-16901.205,-14767.328,-11358.530,-15962.141,-303.626,-16687.299,-8724.512,-6112.733,0
15118.945,-16899.596,-14767.663,-11360.632,-15961.851,-304.230,-16688.908,-8726.926,-6117.918,0
15118.945,-16905.295,-14774.436,-11367.047,-15970.902,-306.018,-16695.166,-8727.597,-6120.444,0
15118.945,-16906.971,-14778.459,-11367.382,-15976.334,-305.839,-16697.424,-8728.490,-6116.085,0
15118.945,-16905.316,-14774.749,-11366.868,-15973.160,-304.185,-16690.830,-8724.355,-6108.039,0
15118.945,-16903.664,-14771.419,-11364.253,-15963.526,-299.357,-16683.342,-8715.191,-6108.262,0
15118.945,-16903.484,-14769.161,-11368.254,-15963.660,-296.719,-16681.979,-8718.275,-6109.537,0
15118.946,-16905.115,-14765.674,-11374.512,-15971.707,-296.965,-16688.080,-8727.730,-6117.091,0
15118.946,-16908.111,-14769.027,-11376.166,-15977.675,-298.865,-16695.568,-8730.771,-6126.725,0
15118.946,-16906.859,-14770.972,-11372.255,-15973.607,-299.826,-16691.971,-8730.122,-6116.577,0
15119.003,-16902.725,-14766.435,-11366.108,-15963.415,-299.245,-16683.678,-8733.542,-6110.296,0
15119.003,-16900.557,-14761.360,-11366.555,-15962.923,-298.440,-16682.693,-8743.556,-6109.313,0
15119.004,-16904.713,-14764.803,-11372.411,-15971.216,-297.971,-16687.074,-8730.927,-6105.044,0
15119.004,-16904.379,-14765.741,-11375.496,-15976.893,-300.027,-16692.932,-8726.747,-6114.096,0
15119.004,-16898.209,-14759.595,-11372.232,-15971.417,-301.547,-16688.707,-8730.256,-6114.141,0
15119.004,-16889.873,-14748.620,-11368.209,-15961.291,-301.234,-16681.598,-8734.995,-6117.203,0
15119.004,-16885.492,-14740.171,-11367.695,-15959.794,-299.893,-16680.861,-8740.561,-6119.081,0
15119.005,-16889.471,-14740.461,-11373.953,-15967.080,-301.503,-16688.707,-8744.248,-6123.618,0
15119.005,-16891.123,-14744.306,-11378.826,-15970.724,-302.374,-16694.205,-8739.555,-6125.786,0
15119.005,-16889.850,-14742.630,-11378.379,-15966.768,-301.279,-16690.137,-8736.045,-6120.444,0
15119.005,-16884.486,-14733.242,-11371.315,-15956.530,-298.016,-16681.486,-8735.620,-6121.472,0
15119.005,-16885.111,-14732.124,-11371.360,-15957.022,-297.971,-16680.459,-8740.448,-6116.085,0
15119.005,-16889.135,-14739.143,-11377.798,-15965.918,-300.162,-16686.605,-8748.405,-6109.380,0
15119.006,-16890.297,-14744.306,-11379.988,-15971.819,-301.279,-16692.104,-8737.833,-6112.599,0
15119.006,-16882.229,-14736.862,-11374.378,-15965.314,-302.777,-16690.852,-8739.666,-6127.753,0
15119.063,-16877.779,-14729.040,-11368.745,-15954.832,-302.017,-16681.465,-8742.147,-6112.800,0
15119.064,-16879.947,-14730.023,-11368.164,-15954.608,-300.765,-16680.750,-8735.375,-6107.637,0
15119.064,-16884.486,-14736.773,-11373.953,-15964.532,-302.017,-16688.148,-8732.089,-6113.917,0
15119.064,-16886.496,-14740.819,-11376.636,-15970.389,-301.681,-16691.523,-8732.647,-6113.225,0
15119.064,-16882.273,-14737.824,-11372.143,-15964.443,-300.340,-16687.299,-8735.777,-6112.129,0
15119.064,-16878.428,-14734.985,-11367.002,-15955.949,-300.273,-16682.672,-8739.018,-6114.409,0
15119.065,-16876.887,-14732.683,-11366.801,-15955.614,-299.268,-16682.180,-8734.749,-6115.884,0
15119.065,-16881.088,-14737.198,-11372.545,-15965.136,-300.385,-16688.350,-8733.564,-6114.499,0
15119.065,-16887.213,-14741.064,-11376.792,-15973.294,-303.693,-16694.473,-8734.794,-6115.459,0
15119.065,-16883.770,-14736.751,-11372.836,-15969.248,-304.118,-16690.941,-8733.251,-6113.984,0
15119.065,-16874.314,-14728.860,-11364.052,-15957.626,-302.419,-16680.637,-8732.179,-6109.872,0
15119.065,-16871.119,-14726.022,-11362.264,-15955.994,-300.385,-16679.475,-8731.105,-6106.787,0
15119.066,-16876.125,-14727.542,-11366.979,-15964.688,-302.151,-16686.941,-8730.189,-6108.307,0
15119.066,-16879.076,-14730.515,-11368.679,-15970.254,-303.693,-16693.133,-8731.619,-6111.190,0
15119.066,-16877.020,-14729.599,-11365.124,-15965.024,-301.614,-16688.438,-8731.687,-6103.412,0
15119.124,-16871.924,-14724.189,-11361.258,-15954.898,-300.765,-16683.074,-8735.464,-6107.659,0
15119.124,-16871.543,-14725.664,-11361.102,-15954.295,-299.580,-16684.594,-8736.135,-6110.319,0
15119.124,-16879.188,-14734.292,-11368.857,-15964.085,-301.614,-16694.271,-8741.901,-6117.717,0
15119.124,-16885.201,-14743.233,-11374.490,-15971.260,-303.783,-16702.162,-8746.774,-6124.579,0
15119.124,-16883.793,-14742.294,-11371.383,-15967.281,-302.956,-16698.607,-8745.545,-6116.309,0
15119.124,-16877.779,-14733.912,-11364.990,-15957.022,-300.944,-16691.322,-8743.421,-6116.152,0
15119.124,-16878.338,-14734.672,-11364.856,-15956.419,-298.776,-16689.713,-8742.572,-6117.605,0
15119.125,-16887.570,-14743.837,-11373.395,-15967.885,-301.503,-16698.742,-8747.311,-6125.048,0
15119.125,-16888.576,-14745.558,-11374.445,-15973.540,-302.285,-16702.162,-8746.059,-6123.238,0
15119.125,-16886.787,-14741.690,-11371.315,-15970.075,-301.391,-16696.865,-8743.533,-6117.494,0
15119.125,-16881.848,-14736.416,-11364.945,-15960.420,-299.424,-16688.461,-8739.331,-6114.297,0
15119.125,-16880.574,-14734.873,-11363.560,-15960.576,-297.748,-16688.170,-8738.839,-6116.801,0
15119.125,-16887.682,-14744.104,-11369.483,-15969.204,-297.010,-16692.104,-8739.644,-6117.158,0
15119.125,-16894.455,-14750.408,-11376.278,-15977.787,-298.642,-16696.193,-8742.975,-6121.986,0
15119.125,-16888.844,-14740.104,-11370.489,-15971.596,-295.401,-16686.785,-8741.298,-6115.258,0
15119.184,-16881.871,-14732.325,-11361.861,-15960.979,-291.109,-16674.670,-8736.604,-6107.838,0
15119.184,-16881.557,-14733.197,-11360.878,-15960.845,-289.455,-16671.070,-8739.197,-6100.350,0
15119.184,-16886.564,-14741.021,-11367.271,-15970.009,-288.315,-16673.484,-8735.062,-6092.348,0
15119.184,-16890.230,-14747.301,-11370.980,-15978.100,-289.567,-16680.234,-8720.913,-6101.602,0
15119.185,-16886.654,-14743.792,-11365.080,-15974.367,-288.226,-16675.631,-8714.990,-6095.634,0
15119.185,-16876.863,-14731.812,-11357.524,-15962.252,-287.108,-16667.383,-8720.868,-6092.370,0
15119.185,-16875.680,-14726.022,-11358.017,-15959.860,-286.751,-16668.367,-8734.369,-6099.590,0
15119.185,-16884.418,-14734.852,-11365.370,-15970.992,-289.924,-16678.984,-8732.805,-6098.293,0
15119.185,-16889.760,-14742.250,-11370.153,-15977.854,-293.143,-16690.428,-8725.361,-6105.804,0
15119.185,-16888.598,-14740.461,-11368.455,-15971.641,-293.948,-16690.650,-8726.456,-6108.553,0
15119.186,-16880.529,-14730.627,-11361.079,-15957.916,-292.271,-16684.660,-8739.621,-6116.533,0
15119.186,-16881.871,-14733.756,-11362.800,-15958.273,-291.891,-16685.309,-8743.466,-6119.707,0
15119.186,-16891.213,-14745.490,-11369.841,-15968.108,-291.020,-16689.512,-8723.797,-6108.508,0
15119.186,-16897.516,-14753.336,-11374.468,-15976.133,-292.651,-16693.244,-8719.997,-6104.843,0
15119.186,-16895.461,-14752.644,-11371.383,-15972.825,-294.082,-16690.070,-8724.199,-6107.614,0
15119.244,-16887.637,-14742.004,-11363.381,-15961.895,-293.545,-16681.598,-8730.435,-6109.402,0
15119.244,-16884.418,-14739.009,-11360.699,-15960.644,-292.204,-16680.012,-8734.883,-6112.688,0
15119.245,-16889.627,-14747.256,-11364.655,-15969.383,-292.741,-16685.980,-8731.239,-6118.164,0
15119.245,-16895.930,-14756.130,-11370.734,-15978.391,-295.334,-16689.914,-8732.044,-6113.269,0
15119.245,-16891.816,-14750.922,-11365.684,-15972.378,-293.635,-16683.834,-8731.195,-6110.274,0
15119.245,-16887.703,-14742.897,-11359.313,-15962.654,-292.294,-16677.732,-8731.284,-6114.252,0
15119.245,-16889.447,-14744.977,-11360.096,-15961.492,-289.388,-16675.340,-8735.755,-6111.458,0
15119.245,-16897.293,-14754.767,-11368.164,-15970.925,-288.382,-16681.711,-8732.782,-6103.703,0
15119.246,-16901.451,-14755.393,-11373.507,-15977.742,-288.896,-16685.377,-8727.574,-6102.272,0
15119.246,-16898.701,-14747.994,-11369.796,-15973.048,-288.337,-16682.492,-8727.283,-6104.798,0
15119.246,-16894.008,-14741.914,-11362.979,-15962.230,-286.192,-16676.324,-8730.972,-6108.486,0
15119.246,-16896.443,-14742.607,-11366.130,-15962.387,-285.186,-16674.893,-8728.289,-6102.809,0
15119.246,-16901.740,-14747.278,-11374.400,-15972.423,-287.443,-16681.219,-8728.490,-6104.239,0
15119.247,-16902.992,-14748.598,-11377.172,-15977.675,-289.254,-16685.779,-8733.407,-6110.363,0
15119.247,-16900.020,-14748.485,-11375.518,-15973.271,-290.461,-16682.984,-8736.112,-6111.995,0
15119.304,-16893.939,-14745.759,-11369.125,-15962.432,-289.612,-16674.535,-8738.549,-6110.251,0
15119.305,-16894.119,-14749.849,-11368.634,-15961.135,-287.287,-16672.547,-8735.576,-6107.949,0
15119.305,-16898.611,-14756.577,-11374.423,-15968.310,-288.941,-16681.018,-8735.240,-6110.319,0
15119.305,-16902.076,-14755.951,-11378.356,-15973.518,-291.087,-16688.527,-8736.291,-6113.157,0
15119.305,-16897.896,-14747.614,-11374.289,-15966.275,-290.796,-16685.443,-8737.207,-6113.448,0
15119.305,-16893.471,-14740.305,-11367.896,-15956.218,-291.556,-16681.084,-8742.192,-6117.494,0
15119.305,-16893.270,-14736.773,-11367.605,-15955.815,-291.713,-16682.068,-8745.120,-6121.629,0
15119.305,-16897.807,-14741.959,-11372.099,-15964.600,-291.355,-16686.516,-8741.589,-6121.070,0
15119.305,-16898.857,-14748.776,-11373.484,-15970.836,-290.997,-16689.154,-8737.252,-6118.544,0
15119.305,-16895.504,-14752.866,-11370.913,-15967.103,-292.920,-16687.746,-8737.878,-6118.253,0
15119.305,-16887.703,-14746.184,-11365.259,-15956.329,-293.545,-16681.934,-8740.694,-6119.304,0
15119.305,-16886.943,-14735.879,-11366.733,-15956.262,-292.897,-16679.342,-8741.275,-6114.141,0
15119.306,-16890.342,-14738.874,-11371.495,-15963.861,-292.495,-16683.789,-8737.118,-6111.369,0
15119.306,-16891.236,-14743.568,-11373.216,-15968.444,-293.590,-16688.461,-8741.521,-6114.968,0
15119.306,-16885.826,-14738.629,-11367.359,-15962.699,-291.869,-16682.918,-8746.818,-6108.396,0
15119.364,-16881.043,-14734.471,-11360.498,-15954.094,-291.377,-16675.318,-8739.241,-6104.530,0
15119.364,-16881.043,-14735.856,-11359.514,-15952.686,-288.896,-16673.574,-8722.947,-6103.367,0
15119.364,-16885.648,-14746.519,-11365.639,-15961.627,-290.036,-16679.408,-8721.740,-6102.674,0
15119.364,-16886.586,-14748.419,-11369.305,-15966.790,-291.355,-16683.320,-8738.638,-6101.602,0
15119.365,-16882.316,-14740.081,-11366.376,-15962.230,-293.300,-16682.604,-8752.765,-6105.536,0
15119.365,-16876.641,-14727.318,-11358.464,-15949.803,-289.567,-16672.994,-8730.278,-6101.445,0
15119.365,-16877.490,-14725.865,-11361.146,-15949.937,-290.461,-16674.424,-8726.300,-6106.474,0
15119.365,-16882.406,-14729.822,-11368.745,-15958.252,-293.501,-16682.762,-8740.471,-6115.191,0
15119.365,-16886.877,-14736.818,-11373.686,-15964.957,-296.474,-16689.287,-8747.668,-6120.690,0
15119.365,-16883.770,-14744.217,-11369.685,-15959.525,-294.685,-16685.779,-8739.309,-6120.221,0
15119.366,-16879.500,-14740.059,-11364.253,-15949.109,-291.355,-16676.547,-8734.883,-6115.258,0
15119.366,-16880.104,-14734.583,-11365.482,-15949.512,-290.506,-16677.150,-8738.571,-6118.164,0
15119.366,-16885.156,-14740.439,-11371.294,-15958.341,-292.428,-16684.996,-8741.589,-6121.249,0
15119.366,-16889.471,-14747.547,-11375.540,-15965.672,-294.954,-16691.545,-8747.824,-6122.612,0
15119.366,-16883.770,-14741.021,-11367.940,-15959.324,-292.964,-16687.521,-8747.399,-6120.131,0
15119.424,-16876.773,-14731.722,-11360.363,-15948.707,-290.148,-16678.514,-8736.492,-6114.409,0
15119.424,-16877.824,-14731.274,-11363.180,-15950.920,-292.271,-16680.303,-8742.125,-6116.979,0
15119.425,-16885.334,-14738.718,-11369.260,-15960.979,-292.964,-16685.689,-8739.845,-6117.941,0
15119.425,-16888.018,-14749.335,-11371.315,-15966.566,-293.970,-16689.398,-8743.846,-6118.745,0
15119.425,-16882.205,-14743.636,-11366.398,-15960.911,-293.501,-16685.510,-8744.673,-6118.298,0
15119.425,-16873.578,-14726.380,-11359.827,-15949.579,-293.076,-16677.084,-8743.421,-6119.729,0
15119.425,-16872.975,-14724.524,-11359.559,-15949.064,-291.958,-16674.715,-8741.790,-6116.935,0
15119.425,-16877.332,-14735.187,-11363.091,-15956.105,-292.003,-16680.906,-8741.208,-6114.141,0
15119.426,-16888.039,-14744.798,-11370.467,-15964.487,-296.094,-16688.752,-8747.020,-6118.276,0
15119.426,-16883.883,-14738.428,-11363.806,-15957.827,-292.428,-16682.873,-8741.208,-6115.549,0
15119.426,-16876.908,-14733.376,-11357.302,-15948.417,-289.768,-16672.949,-8739.331,-6111.995,0
15119.426,-16875.389,-14730.225,-11357.592,-15947.992,-287.019,-16667.629,-8738.906,-6107.324,0
15119.426,-16876.484,-14723.876,-11361.414,-15956.463,-287.063,-16672.814,-8734.995,-6105.625,0
15119.427,-16877.936,-14728.123,-11361.928,-15963.214,-288.360,-16676.949,-8731.128,-6105.401,0
15119.427,-16880.619,-14733.733,-11358.731,-15959.839,-288.047,-16675.004,-8730.010,-6107.592,0
15119.484,-16877.512,-14725.620,-11352.585,-15950.160,-286.080,-16666.176,-8729.071,-6102.630,0
15119.484,-16879.746,-14730.693,-11352.987,-15949.690,-286.505,-16665.818,-8728.490,-6104.373,0
15119.485,-16887.771,-14739.389,-11357.569,-15958.386,-286.996,-16672.703,-8726.277,-6096.640,0
15119.485,-16894.566,-14750.386,-11360.408,-15966.187,-287.801,-16677.441,-8728.178,-6097.690,0
15119.485,-16898.031,-14756.979,-11360.944,-15966.008,-289.142,-16676.457,-8733.341,-6101.512,0
15119.485,-16890.744,-14751.950,-11353.256,-15954.229,-287.823,-16672.502,-8734.458,-6108.017,0
15119.485,-16887.973,-14741.445,-11352.809,-15952.864,-288.315,-16675.832,-8732.357,-6110.319,0
15119.485,-16896.623,-14755.191,-11359.201,-15962.409,-290.863,-16684.705,-8731.396,-6112.688,0
15119.486,-16902.545,-14765.696,-11363.537,-15969.562,-292.607,-16692.416,-8732.647,-6114.856,0
15119.486,-16900.020,-14756.487,-11360.207,-15965.068,-292.607,-16692.395,-8733.318,-6114.856,0
15119.486,-16891.348,-14756.220,-11350.037,-15951.680,-290.595,-16684.951,-8735.554,-6121.562,0
15119.486,-16890.162,-14757.226,-11348.473,-15948.931,-291.511,-16688.572,-8737.006,-6130.011,0
15119.486,-16897.740,-14762.366,-11355.245,-15958.408,-294.171,-16698.922,-8741.052,-6137.610,0
15119.487,-16898.590,-14760.443,-11361.481,-15966.275,-297.502,-16703.793,-8743.287,-6129.474,0
15119.487,-16891.570,-14760.511,-11357.927,-15961.247,-296.295,-16696.127,-8741.298,-6118.835,0
15119.544,-16886.609,-14766.837,-11349.031,-15949.423,-293.054,-16685.264,-8738.750,-6110.185,0
15119.545,-16887.592,-14770.904,-11347.892,-15948.931,-295.289,-16689.266,-8746.372,-6123.059,0
15119.545,-16893.627,-14775.979,-11355.894,-15956.643,-298.731,-16698.229,-8751.312,-6125.384,0
15119.545,-16895.438,-14770.167,-11360.699,-15963.035,-302.441,-16706.186,-8755.559,-6126.792,0
15119.545,-16891.057,-14761.919,-11354.508,-15958.185,-301.927,-16704.822,-8749.390,-6124.915,0
15119.545,-16886.297,-14766.523,-11348.294,-15948.439,-299.424,-16696.797,-8748.227,-6131.419,0
15119.546,-16885.447,-14758.209,-11347.556,-15947.054,-295.982,-16694.697,-8748.719,-6130.189,0
15119.546,-16889.760,-14764.758,-11349.702,-15955.167,-294.395,-16698.809,-8745.143,-6127.664,0
15119.546,-16894.096,-14775.732,-11352.607,-15963.057,-296.272,-16704.062,-8743.958,-6129.653,0
15119.546,-16891.996,-14771.799,-11350.037,-15959.012,-296.138,-16701.939,-8744.248,-6131.620,0
15119.546,-16883.279,-14771.128,-11340.314,-15946.114,-293.903,-16694.898,-8745.701,-6133.676,0
15119.546,-16882.406,-14770.524,-11339.309,-15944.460,-293.680,-16693.668,-8747.221,-6133.363,0
15119.547,-16888.799,-14776.045,-11346.863,-15954.496,-294.909,-16699.682,-8748.138,-6133.766,0
15119.547,-16890.855,-14779.465,-11351.177,-15962.654,-296.764,-16706.051,-8749.232,-6136.135,0
15119.547,-16885.246,-14778.795,-11344.002,-15957.402,-294.931,-16701.895,-8745.724,-6136.202,0
15119.547,-16881.021,-14765.361,-11336.693,-15946.651,-293.344,-16691.635,-8743.823,-6127.865,0
15119.606,-16881.625,-14772.760,-11335.776,-15945.847,-292.808,-16688.326,-8741.142,-6117.069,0
15119.606,-16888.799,-14776.582,-11344.427,-15954.854,-295.624,-16697.400,-8746.395,-6123.350,0
15119.606,-16897.875,-14785.679,-11351.758,-15963.728,-298.351,-16705.381,-8742.595,-6126.993,0
15119.606,-16896.957,-14793.413,-11349.567,-15958.967,-297.390,-16700.910,-8741.187,-6126.568,0
15119.606,-16885.760,-14775.844,-11342.907,-15945.936,-293.389,-16690.539,-8739.354,-6125.965,0
15119.607,-16882.965,-14776.648,-11343.957,-15945.488,-293.635,-16688.506,-8745.120,-6127.239,0
15119.607,-16889.471,-14778.683,-11350.864,-15953.960,-295.512,-16694.518,-8752.519,-6124.355,0
15119.607,-16895.102,-14771.978,-11355.670,-15962.654,-297.658,-16703.459,-8749.390,-6125.429,0
15119.607,-16893.293,-14771.910,-11351.043,-15960.241,-297.055,-16701.693,-8736.895,-6125.607,0
15119.607,-16884.709,-14762.366,-11341.141,-15946.673,-291.824,-16689.131,-8727.977,-6108.553,0
15119.608,-16885.156,-14768.513,-11342.191,-15947.210,-292.070,-16689.467,-8730.524,-6112.353,0
15119.608,-16890.342,-14771.352,-11346.461,-15955.278,-290.930,-16694.049,-8727.439,-6114.096,0
15119.608,-16896.354,-14776.560,-11352.987,-15964.756,-294.909,-16701.381,-8729.787,-6120.310,0
15119.608,-16892.600,-14771.731,-11351.602,-15960.308,-296.138,-16697.938,-8733.363,-6125.831,0
15119.608,-16885.223,-14762.366,-11344.092,-15947.679,-294.305,-16688.818,-8736.336,-6126.926,0
15119.666,-16882.988,-14765.696,-11341.834,-15945.891,-294.060,-16688.773,-8740.136,-6127.552,0
15119.666,-16889.357,-14771.284,-11349.300,-15955.502,-296.339,-16697.559,-8744.024,-6128.938,0
15119.666,-16891.816,-14783.824,-11352.854,-15960.129,-294.842,-16700.463,-8743.689,-6127.306,0
15119.666,-16889.873,-14778.102,-11349.479,-15956.374,-294.797,-16698.385,-8744.360,-6125.384,0
15119.666,-16883.994,-14764.914,-11342.974,-15945.086,-291.511,-16690.316,-8742.035,-6127.664,0
15119.666,-16887.793,-14769.385,-11346.326,-15945.891,-290.439,-16687.500,-8743.153,-6130.324,0
15119.666,-16893.471,-14773.072,-11350.372,-15955.167,-290.684,-16693.893,-8742.616,-6127.619,0
15119.666,-16897.561,-14774.659,-11355.446,-15963.705,-293.568,-16700.039,-8741.610,-6127.083,0
15119.666,-16892.041,-14771.017,-11352.094,-15959.414,-294.574,-16698.184,-8741.812,-6129.117,0
15119.667,-16881.512,-14762.970,-11342.415,-15946.517,-292.473,-16689.824,-8740.739,-6128.916,0
15119.667,-16879.725,-14762.500,-11341.744,-15944.975,-292.093,-16689.064,-8740.471,-6128.155,0
15119.667,-16885.670,-14769.787,-11347.266,-15954.161,-293.389,-16694.943,-8740.471,-6126.747,0
15119.667,-16888.018,-14771.575,-11350.686,-15960.755,-294.596,-16700.396,-8738.861,-6125.339,0
15119.667,-16882.475,-14765.026,-11345.343,-15955.055,-294.060,-16698.004,-8737.811,-6124.691,0
15119.667,-16873.555,-14750.207,-11336.269,-15941.197,-292.584,-16688.975,-8740.158,-6126.971,0
15119.725,-16872.438,-14746.407,-11337.341,-15939.342,-292.942,-16688.236,-8742.930,-6130.636,0
15119.725,-16877.734,-14755.639,-11346.170,-15949.154,-295.222,-16695.055,-8745.366,-6130.525,0
15119.726,-16879.658,-14759.326,-11350.439,-15955.949,-295.043,-16697.736,-8741.969,-6125.875,0
15119.726,-16876.572,-14759.706,-11346.886,-15952.597,-294.015,-16693.379,-8743.936,-6125.674,0
15119.726,-16871.029,-14753.850,-11337.297,-15941.465,-291.847,-16685.377,-8740.627,-6123.461,0
15119.726,-16872.594,-14753.381,-11338.683,-15941.443,-291.780,-16686.158,-8738.571,-6126.770,0
15119.726,-16878.629,-14757.762,-11346.125,-15950.339,-292.942,-16691.971,-8741.678,-6128.334,0
15119.727,-16882.877,-14764.825,-11349.120,-15956.955,-293.411,-16696.664,-8741.969,-6127.731,0
15119.727,-16885.111,-14767.217,-11347.243,-15954.832,-293.300,-16695.703,-8732.737,-6126.166,0
15119.727,-16880.797,-14759.080,-11341.029,-15944.661,-291.042,-16687.857,-8732.826,-6124.512,0
15119.727,-16879.076,-14761.405,-11341.588,-15943.991,-290.282,-16687.545,-8737.319,-6128.692,0
15119.727,-16882.676,-14767.999,-11346.818,-15951.903,-292.338,-16695.658,-8742.706,-6133.788,0
15119.727,-16888.396,-14773.520,-11350.372,-15958.520,-295.132,-16702.654,-8745.053,-6134.526,0
15119.728,-16886.408,-14773.431,-11346.438,-15954.653,-295.334,-16698.787,-8745.455,-6128.334,0
15119.728,-16879.188,-14761.606,-11339.487,-15944.661,-293.613,-16690.070,-8741.298,-6127.239,0
15119.785,-16873.377,-14755.594,-11338.392,-15943.053,-291.489,-16686.963,-8741.610,-6128.714,0
15119.785,-16876.059,-14761.182,-11343.868,-15949.624,-291.109,-16692.193,-8740.270,-6126.613,0
15119.785,-16882.854,-14764.021,-11348.473,-15957.045,-293.881,-16697.893,-8738.705,-6125.473,0
15119.786,-16879.457,-14760.734,-11343.555,-15952.351,-293.680,-16694.473,-8734.190,-6123.953,0
15119.786,-16872.863,-14751.973,-11336.716,-15942.136,-292.182,-16686.852,-8735.263,-6123.573,0
15119.786,-16872.818,-14752.353,-11334.793,-15940.415,-290.930,-16685.465,-8732.581,-6125.630,0
15119.786,-16881.334,-14766.702,-11341.409,-15951.747,-293.344,-16692.596,-8732.179,-6121.740,0
15119.786,-16885.826,-14767.842,-11344.784,-15958.229,-294.104,-16696.352,-8733.766,-6124.355,0
15119.787,-16881.178,-14763.461,-11341.678,-15954.362,-294.685,-16693.133,-8736.761,-6124.378,0
15119.787,-16872.527,-14756.197,-11334.972,-15943.410,-293.568,-16685.443,-8738.481,-6119.885,0
15119.787,-16874.494,-14757.247,-11336.492,-15942.807,-293.300,-16685.980,-8740.516,-6120.623,0
15119.787,-16881.758,-14764.444,-11343.041,-15953.065,-294.350,-16694.385,-8739.912,-6129.430,0
15119.788,-16884.709,-14770.122,-11344.337,-15959.123,-293.188,-16698.229,-8734.838,-6129.899,0
15119.788,-16883.547,-14771.709,-11341.990,-15956.173,-295.043,-16696.150,-8733.676,-6128.043,0
15119.788,-16875.434,-14764.624,-11334.145,-15943.589,-293.188,-16689.398,-8735.218,-6130.167,0
15119.845,-16876.729,-14764.467,-11334.883,-15943.030,-291.757,-16687.992,-8731.754,-6125.607,0
15119.845,-16885.357,-14773.095,-11342.259,-15952.507,-291.891,-16695.100,-8733.140,-6128.603,0
15119.845,-16889.180,-14779.107,-11346.796,-15959.056,-291.869,-16700.375,-8737.767,-6130.458,0
15119.846,-16889.672,-14780.359,-11344.449,-15956.664,-290.930,-16696.842,-8735.979,-6125.473,0
15119.846,-16880.641,-14769.631,-11333.742,-15945.020,-288.405,-16687.344,-8733.810,-6125.898,0
15119.846,-16878.965,-14763.573,-11333.563,-15943.879,-288.717,-16686.986,-8737.229,-6132.626,0
15119.846,-16892.041,-14776.381,-11345.656,-15954.430,-290.729,-16690.986,-8733.027,-6126.144,0
15119.846,-16899.818,-14786.618,-11348.941,-15961.067,-293.143,-16696.955,-8739.711,-6126.680,0
15119.846,-16899.326,-14785.433,-11345.902,-15957.380,-295.088,-16696.061,-8742.817,-6128.379,0
15119.846,-16892.801,-14778.013,-11338.525,-15944.460,-291.467,-16684.615,-8726.657,-6117.583,0
15119.846,-16894.812,-14780.471,-11341.097,-15943.924,-292.048,-16684.773,-8726.971,-6118.388,0
15119.846,-16901.785,-14784.650,-11346.550,-15952.217,-293.389,-16689.311,-8726.076,-6117.315,0
15119.846,-16905.205,-14784.539,-11349.702,-15959.235,-296.295,-16696.061,-8726.546,-6123.484,0
15119.846,-16905.250,-14783.824,-11348.271,-15956.620,-295.579,-16692.752,-8724.579,-6115.035,0
15119.846,-16902.299,-14779.890,-11342.929,-15947.522,-293.277,-16681.018,-8722.769,-6105.133,0
15119.905,-16902.746,-14777.453,-11343.712,-15947.411,-291.109,-16676.570,-8719.349,-6096.751,0
15119.905,-16906.457,-14776.157,-11347.042,-15955.413,-289.142,-16680.348,-8707.145,-6094.918,0
15119.906,-16908.805,-14778.839,-11351.959,-15961.358,-287.823,-16682.359,-8704.104,-6094.404,0
15119.906,-16911.465,-14780.404,-11354.351,-15961.403,-288.695,-16680.324,-8702.674,-6090.649,0
15119.906,-16904.021,-14766.054,-11345.008,-15948.439,-284.337,-16667.740,-8699.746,-6079.161,0
15119.906,-16901.518,-14759.371,-11345.634,-15945.601,-285.812,-16668.836,-8714.364,-6097.086,0
15119.906,-16906.412,-14762.455,-11352.697,-15955.703,-288.270,-16677.619,-8720.354,-6105.133,0
15119.906,-16910.703,-14765.339,-11358.062,-15962.677,-286.907,-16679.273,-8710.676,-6093.600,0
15119.906,-16913.408,-14766.546,-11358.731,-15960.196,-285.588,-16675.117,-8709.782,-6091.677,0
15119.906,-16905.562,-14756.935,-11352.026,-15949.177,-282.794,-16666.488,-8710.877,-6091.677,0
15119.906,-16904.512,-14754.699,-11356.787,-15949.848,-283.644,-16668.656,-8716.822,-6097.198,0
15119.906,-16910.838,-14760.623,-11366.488,-15959.012,-284.694,-16676.904,-8723.976,-6103.904,0
15119.907,-16914.705,-14762.679,-11371.696,-15965.091,-283.465,-16681.039,-8725.942,-6103.300,0
15119.907,-16913.029,-14763.081,-11369.260,-15962.654,-283.174,-16680.504,-8723.596,-6108.262,0
15119.907,-16905.832,-14758.856,-11361.057,-15951.591,-282.012,-16673.328,-8726.054,-6109.648,0
15119.966,-16903.373,-14750.296,-11360.185,-15949.825,-281.386,-16670.422,-8722.344,-6097.646,0
15119.966,-16907.373,-14750.452,-11364.767,-15957.938,-285.119,-16679.721,-8721.449,-6106.631,0
15119.966,-16911.598,-14755.594,-11368.723,-15964.756,-286.885,-16684.303,-8717.717,-6106.072,0
15119.966,-16909.207,-14752.509,-11366.555,-15961.872,-285.521,-16677.105,-8711.458,-6088.392,0
15119.966,-16900.803,-14742.831,-11357.458,-15950.540,-283.152,-16666.914,-8713.626,-6083.810,0
15119.966,-16895.840,-14737.422,-11355.446,-15949.244,-283.532,-16667.941,-8720.802,-6094.181,0
15119.966,-16896.779,-14738.114,-11359.112,-15955.882,-284.001,-16674.893,-8723.707,-6100.953,0
15119.966,-16904.893,-14746.563,-11366.421,-15966.275,-287.756,-16682.314,-8721.360,-6099.657,0
15119.966,-16902.367,-14744.686,-11362.040,-15962.096,-285.901,-16676.928,-8716.309,-6087.296,0
15119.967,-16894.699,-14738.853,-11352.183,-15950.429,-282.168,-16668.188,-8707.703,-6086.648,0
15119.967,-16894.320,-14739.276,-11352.071,-15950.183,-281.498,-16666.936,-8705.915,-6082.446,0
15119.967,-16899.506,-14743.568,-11359.156,-15959.973,-281.833,-16669.686,-8703.568,-6073.975,0
15119.967,-16901.629,-14745.490,-11363.984,-15967.259,-283.599,-16673.553,-8709.044,-6078.356,0
15119.967,-16897.963,-14744.082,-11359.313,-15962.364,-282.526,-16672.322,-8705.535,-6081.418,0
15119.967,-16892.934,-14740.842,-11351.065,-15951.858,-280.380,-16664.477,-8702.428,-6077.573,0
15120.026,-16889.582,-14737.936,-11350.462,-15949.780,-279.978,-16663.695,-8711.794,-6082.066,0
15120.026,-16890.967,-14737.913,-11353.882,-15956.173,-282.504,-16671.340,-8716.644,-6089.263,0
15120.026,-16894.812,-14738.808,-11356.720,-15961.984,-282.705,-16674.871,-8717.270,-6091.968,0
15120.026,-16892.891,-14735.790,-11353.971,-15959.905,-284.135,-16673.150,-8718.991,-6096.572,0
15120.026,-16885.535,-14729.688,-11344.650,-15948.797,-282.548,-16665.729,-8710.475,-6093.175,0
15120.027,-16882.877,-14726.983,-11344.807,-15946.137,-281.408,-16663.828,-8713.202,-6091.946,0
15120.027,-16886.027,-14731.722,-11352.160,-15955.033,-285.074,-16672.502,-8722.634,-6102.742,0
15120.027,-16890.678,-14737.466,-11357.927,-15963.594,-287.913,-16679.072,-8719.885,-6096.327,0
15120.027,-16882.586,-14731.565,-11352.183,-15956.218,-287.689,-16677.330,-8719.394,-6094.114,0
15120.027,-16872.572,-14720.948,-11344.494,-15943.700,-288.315,-16671.875,-8722.254,-6101.355,0
15120.027,-16869.621,-14718.914,-11342.103,-15940.169,-286.616,-16667.271,-8721.584,-6092.303,0
15120.027,-16876.908,-14725.821,-11349.903,-15949.244,-286.035,-16672.748,-8720.131,-6087.363,0
15120.027,-16883.145,-14734.382,-11356.943,-15958.006,-289.723,-16683.074,-8724.467,-6108.396,0
15120.028,-16885.357,-14738.472,-11358.821,-15957.670,-292.137,-16682.963,-8729.966,-6118.835,0
15120.028,-16885.559,-14738.450,-11355.736,-15949.445,-285.812,-16665.729,-8722.857,-6083.094,0
15120.086,-16882.607,-14730.939,-11354.687,-15946.360,-283.420,-16663.896,-8725.384,-6089.509,0
15120.086,-16886.117,-14740.282,-11360.408,-15954.653,-286.058,-16673.105,-8730.949,-6098.048,0
15120.087,-16892.979,-14751.638,-11364.319,-15962.767,-288.025,-16679.721,-8732.805,-6097.333,0
15120.087,-16893.895,-14748.262,-11363.939,-15961.291,-288.494,-16679.006,-8729.675,-6099.545,0
15120.087,-16885.424,-14732.079,-11356.296,-15949.109,-285.231,-16669.283,-8722.545,-6097.131,0
15120.087,-16881.424,-14725.485,-11353.390,-15945.936,-283.845,-16666.512,-8720.779,-6096.528,0
15120.087,-16887.012,-14729.866,-11358.643,-15955.189,-284.381,-16669.730,-8720.958,-6091.722,0
15120.087,-16892.465,-14736.595,-11363.381,-15963.705,-287.756,-16677.016,-8730.949,-6103.144,0
15120.087,-16891.906,-14738.919,-11361.973,-15960.755,-288.025,-16673.932,-8724.355,-6092.616,0
15120.087,-16881.154,-14731.945,-11352.429,-15946.249,-284.560,-16664.947,-8717.247,-6088.570,0
15120.087,-16879.545,-14732.639,-11349.791,-15944.997,-285.231,-16666.758,-8723.752,-6095.298,0
15120.087,-16886.340,-14738.003,-11355.781,-15954.810,-288.248,-16674.424,-8728.938,-6098.673,0
15120.087,-16889.291,-14739.791,-11360.363,-15961.851,-291.377,-16682.068,-8736.112,-6108.352,0
15120.088,-16885.268,-14737.108,-11358.263,-15957.715,-289.992,-16678.625,-8737.006,-6106.653,0
15120.088,-16879.947,-14731.029,-11354.687,-15948.618,-290.103,-16672.592,-8739.621,-6110.721,0
15120.146,-16878.025,-14731.387,-11351.780,-15945.824,-288.673,-16672.322,-8737.476,-6120.265,0
15120.146,-16885.805,-14739.567,-11358.643,-15955.033,-286.929,-16672.926,-8728.624,-6099.366,0
15120.146,-16887.994,-14745.044,-11362.554,-15961.247,-288.472,-16677.016,-8730.233,-6095.321,0
15120.147,-16884.844,-14741.423,-11360.341,-15957.111,-289.679,-16674.893,-8742.371,-6095.656,0
15120.147,-16879.031,-14734.248,-11354.730,-15946.673,-291.958,-16670.199,-8748.227,-6104.194,0
15120.147,-16878.920,-14734.471,-11353.591,-15945.131,-292.696,-16669.953,-8739.555,-6105.960,0
15120.147,-16883.436,-14739.656,-11357.145,-15951.926,-291.288,-16673.082,-8742.415,-6091.186,0
15120.147,-16886.252,-14744.887,-11361.525,-15957.850,-291.668,-16679.811,-8732.179,-6098.249,0
15120.147,-16881.758,-14744.082,-11356.698,-15955.145,-293.948,-16682.336,-8724.489,-6108.330,0
15120.148,-16872.371,-14736.841,-11344.807,-15942.427,-292.808,-16674.559,-8720.622,-6106.094,0
15120.148,-16871.141,-14730.671,-11343.063,-15939.789,-289.567,-16668.076,-8721.226,-6091.096,0
15120.148,-16873.980,-14728.258,-11348.986,-15948.662,-291.757,-16674.268,-8733.542,-6093.108,0
15120.148,-16882.475,-14735.119,-11357.011,-15956.508,-292.406,-16681.756,-8728.110,-6093.421,0
15120.148,-16885.447,-14738.494,-11357.860,-15952.820,-290.528,-16681.576,-8719.281,-6099.724,0
15120.148,-16878.070,-14730.984,-11352.272,-15941.421,-288.136,-16674.400,-8724.489,-6098.651,0
15120.206,-16876.551,-14728.615,-11354.038,-15941.264,-289.276,-16675.787,-8722.925,-6103.233,0
15120.206,-16881.244,-14734.561,-11360.453,-15949.646,-291.176,-16682.023,-8727.439,-6109.917,0
15120.206,-16886.742,-14741.445,-11366.912,-15957.782,-293.747,-16689.020,-8749.971,-6112.912,0
15120.206,-16886.408,-14740.662,-11367.047,-15955.726,-293.970,-16686.113,-8762.644,-6108.553,0
15120.207,-16881.602,-14733.733,-11360.989,-15947.098,-292.875,-16678.625,-8756.944,-6114.387,0
15120.207,-16884.441,-14735.320,-11358.530,-15945.847,-286.460,-16672.232,-8717.359,-6101.646,0
15120.207,-16889.000,-14740.015,-11362.554,-15952.529,-287.309,-16679.252,-8730.412,-6114.163,0
15120.207,-16891.459,-14746.496,-11367.002,-15957.760,-289.343,-16681.219,-8751.423,-6118.924,0
15120.207,-16888.420,-14747.502,-11364.834,-15953.468,-286.907,-16675.049,-8728.222,-6101.780,0
15120.207,-16882.139,-14737.712,-11358.575,-15944.952,-287.220,-16669.641,-8717.404,-6096.081,0
15120.208,-16879.166,-14724.189,-11356.742,-15941.957,-286.259,-16667.025,-8723.931,-6095.321,0
15120.208,-16885.982,-14727.273,-11360.520,-15950.361,-288.181,-16674.961,-8728.155,-6101.557,0
15120.208,-16889.045,-14731.498,-11362.822,-15956.463,-286.974,-16676.883,-8725.428,-6096.148,0
15120.208,-16885.693,-14728.995,-11358.866,-15953.669,-286.929,-16673.262,-8726.232,-6091.387,0
15120.208,-16877.176,-14720.233,-11350.148,-15942.427,-285.029,-16663.426,-8724.803,-6087.341,0
15120.266,-16876.326,-14719.585,-11352.675,-15942.672,-287.309,-16663.383,-8726.926,-6091.275,0
15120.266,-16881.512,-14724.569,-11359.895,-15950.809,-289.992,-16671.094,-8731.508,-6096.572,0
15120.266,-16886.898,-14730.448,-11364.319,-15956.821,-291.958,-16677.955,-8738.325,-6104.865,0
15120.266,-16888.062,-14732.459,-11362.576,-15955.167,-292.607,-16677.240,-8739.822,-6105.580,0
15120.266,-16880.641,-14722.088,-11352.854,-15943.969,-289.343,-16667.562,-8737.274,-6096.304,0
15120.266,-16878.160,-14719.250,-11351.646,-15942.292,-288.136,-16665.350,-8738.124,-6095.522,0
15120.267,-16884.084,-14722.625,-11356.005,-15951.300,-287.443,-16670.982,-8734.794,-6095.365,0
15120.267,-16889.627,-14728.213,-11361.303,-15961.403,-290.506,-16680.191,-8735.889,-6104.597,0
15120.267,-16887.682,-14728.437,-11360.162,-15959.638,-292.003,-16680.033,-8736.336,-6109.827,0
15120.267,-16879.613,-14723.519,-11352.764,-15947.992,-288.606,-16667.941,-8731.575,-6095.879,0
15120.267,-16879.031,-14721.753,-11352.898,-15946.606,-288.092,-16666.914,-8732.737,-6094.181,0
15120.267,-16885.492,-14729.397,-11357.771,-15954.139,-289.120,-16675.027,-8732.179,-6098.942,0
15120.267,-16887.883,-14730.046,-11362.286,-15959.905,-288.919,-16676.391,-8733.698,-6087.207,0
15120.267,-16884.486,-14735.298,-11360.989,-15957.514,-289.276,-16674.201,-8736.939,-6086.313,0
15120.267,-16877.064,-14732.594,-11353.658,-15947.880,-288.069,-16668.725,-8726.770,-6097.802,0
15120.326,-16875.545,-14724.994,-11350.596,-15945.042,-285.722,-16664.320,-8724.154,-6086.581,0
15120.326,-16881.535,-14723.317,-11358.844,-15954.563,-288.382,-16670.289,-8733.631,-6088.146,0
15120.326,-16884.373,-14722.580,-11362.576,-15961.560,-290.260,-16678.381,-8740.426,-6097.377,0
15120.326,-16881.826,-14721.775,-11359.581,-15958.028,-289.477,-16676.703,-8738.816,-6098.137,0
15120.326,-16876.484,-14717.707,-11351.646,-15946.562,-287.421,-16667.404,-8744.718,-6091.230,0
15120.327,-16875.656,-14716.522,-11352.004,-15944.482,-288.136,-16667.070,-8758.710,-6094.762,0
15120.327,-16883.078,-14725.910,-11358.530,-15953.267,-288.025,-16672.680,-8734.815,-6093.108,0
15120.327,-16886.943,-14731.230,-11362.711,-15961.046,-289.656,-16679.363,-8719.438,-6095.678,0
15120.327,-16883.523,-14728.905,-11360.274,-15958.185,-291.266,-16678.246,-8728.535,-6099.545,0
15120.327,-16879.211,-14725.620,-11351.669,-15948.216,-288.695,-16668.277,-8727.819,-6090.895,0
15120.327,-16878.250,-14723.407,-11346.617,-15943.991,-284.918,-16662.957,-8724.937,-6090.716,0
15120.327,-16887.949,-14732.169,-11354.597,-15954.810,-286.303,-16669.416,-8722.970,-6089.979,0
15120.327,-16894.924,-14739.545,-11362.330,-15962.812,-287.086,-16674.535,-8727.396,-6082.737,0
15120.327,-16896.041,-14739.925,-11362.979,-15961.403,-289.366,-16675.430,-8735.196,-6095.365,0
15120.327,-16893.582,-14738.271,-11355.692,-15951.568,-288.025,-16669.686,-8731.239,-6100.484,0
15120.387,-16897.561,-14743.255,-11356.050,-15950.361,-283.331,-16660.924,-8730.435,-6067.560,0
15120.387,-16908.178,-14755.146,-11363.984,-15961.962,-283.174,-16666.936,-8719.885,-6064.185,0
15120.387,-16917.723,-14767.038,-11371.473,-15971.774,-285.298,-16676.658,-8708.128,-6073.550,0
15120.387,-16919.510,-14767.217,-11370.533,-15967.505,-284.180,-16672.881,-8706.005,-6068.700,0
15120.387,-16916.068,-14757.896,-11367.404,-15954.251,-284.940,-16665.104,-8717.203,-6074.690,0
15120.388,-16912.648,-14754.521,-11365.058,-15947.165,-284.314,-16664.924,-8725.025,-6088.816,0
15120.388,-16925.434,-14770.413,-11373.528,-15957.782,-284.672,-16671.070,-8721.338,-6077.506,0
15120.388,-16929.637,-14775.240,-11376.859,-15964.890,-285.901,-16677.061,-8721.808,-6076.255,0
15120.388,-16928.250,-14777.073,-11374.468,-15962.654,-286.415,-16674.961,-8714.342,-6077.596,0
15120.388,-16924.250,-14773.542,-11368.320,-15951.568,-283.934,-16665.617,-8712.486,-6073.863,0
15120.388,-16920.605,-14765.271,-11367.404,-15949.288,-284.582,-16665.170,-8720.757,-6079.809,0
15120.389,-16920.248,-14766.322,-11371.137,-15956.754,-286.281,-16672.680,-8727.149,-6087.542,0
15120.389,-16923.803,-14775.062,-11375.115,-15965.359,-287.421,-16680.594,-8725.271,-6091.543,0
15120.389,-16920.516,-14770.771,-11372.188,-15962.923,-286.996,-16677.352,-8724.266,-6082.759,0
15120.389,-16912.312,-14763.931,-11361.884,-15950.920,-285.342,-16667.852,-8729.541,-6080.859,0
15120.447,-16910.123,-14769.295,-11360.140,-15950.271,-286.192,-16666.891,-8731.933,-6080.032,0
15120.447,-16915.242,-14771.553,-11367.181,-15959.302,-286.438,-16672.412,-8729.272,-6084.749,0
15120.447,-16913.477,-14757.471,-11370.489,-15963.459,-286.415,-16677.688,-8728.982,-6095.276,0
15120.447,-16912.270,-14756.733,-11369.863,-15961.492,-286.795,-16675.430,-8734.995,-6082.938,0
15120.447,-16911.129,-14761.584,-11362.755,-15952.574,-282.772,-16663.359,-8719.482,-6061.882,0
15120.447,-16908.268,-14756.220,-11362.174,-15951.076,-282.325,-16659.135,-8710.587,-6065.973,0
15120.447,-16908.066,-14752.464,-11366.600,-15956.664,-282.839,-16663.941,-8721.182,-6069.974,0
15120.447,-16912.090,-14755.280,-11370.489,-15963.861,-283.711,-16670.266,-8717.382,-6073.841,0
15120.447,-16911.688,-14754.543,-11367.963,-15961.716,-285.454,-16672.189,-8708.687,-6082.826,0
15120.448,-16906.412,-14750.609,-11359.850,-15949.892,-283.800,-16662.891,-8701.892,-6070.801,0
15120.448,-16905.898,-14758.231,-11359.850,-15948.752,-283.510,-16658.129,-8714.610,-6060.295,0
15120.448,-16909.631,-14761.360,-11365.103,-15955.658,-284.448,-16664.098,-8724.937,-6066.062,0
15120.448,-16914.324,-14759.416,-11367.829,-15963.146,-288.159,-16676.168,-8731.776,-6087.811,0
15120.448,-16912.627,-14759.326,-11364.364,-15959.503,-287.242,-16673.598,-8727.261,-6082.468,0
15120.448,-16909.988,-14757.091,-11360.721,-15948.797,-283.107,-16658.912,-8714.610,-6054.864,0
15120.507,-16910.213,-14756.532,-11361.437,-15947.232,-283.800,-16661.080,-8713.202,-6067.381,0
15120.507,-16915.018,-14768.334,-11366.645,-15955.592,-286.035,-16669.328,-8712.464,-6074.444,0
15120.507,-16918.348,-14775.219,-11368.946,-15961.872,-287.555,-16675.318,-8714.476,-6078.467,0
15120.508,-16917.900,-14770.703,-11368.924,-15960.688,-288.762,-16676.391,-8722.478,-6081.820,0
15120.508,-16908.559,-14754.722,-11361.481,-15949.780,-285.879,-16666.020,-8724.646,-6076.858,0
15120.508,-16903.217,-14747.167,-11356.430,-15946.919,-283.331,-16661.348,-8721.852,-6071.292,0
15120.508,-16908.736,-14752.979,-11364.499,-15958.296,-286.974,-16670.355,-8720.868,-6074.176,0
15120.508,-16909.363,-14758.768,-11369.237,-15964.935,-288.427,-16675.541,-8724.087,-6079.138,0
15120.508,-16904.109,-14761.517,-11363.604,-15960.911,-286.773,-16671.674,-8723.774,-6075.003,0
15120.509,-16898.389,-14755.303,-11355.356,-15950.942,-286.751,-16666.512,-8723.014,-6080.256,0
15120.509,-16894.387,-14743.479,-11353.948,-15947.746,-286.751,-16665.438,-8727.417,-6091.186,0
15120.509,-16899.037,-14746.139,-11359.895,-15955.994,-286.303,-16666.400,-8723.596,-6075.227,0
15120.509,-16902.545,-14749.626,-11366.577,-15964.666,-289.477,-16670.311,-8731.396,-6068.141,0
15120.509,-16897.158,-14744.775,-11363.493,-15961.962,-289.880,-16669.373,-8729.139,-6071.963,0
15120.509,-16889.471,-14737.221,-11354.149,-15950.384,-285.991,-16659.090,-8711.682,-6063.447,0
15120.566,-16886.877,-14736.304,-11351.937,-15946.763,-284.247,-16655.559,-8704.819,-6060.385,0
15120.567,-16888.576,-14740.439,-11356.765,-15954.810,-285.633,-16662.264,-8712.464,-6071.226,0
15120.567,-16890.744,-14742.920,-11360.185,-15962.432,-288.092,-16672.189,-8723.372,-6081.843,0
15120.567,-16888.129,-14745.446,-11358.731,-15959.905,-289.075,-16672.926,-8737.141,-6077.641,0
15120.567,-16880.127,-14734.717,-11349.232,-15947.031,-287.868,-16665.885,-8732.290,-6079.742,0
15120.567,-16882.719,-14730.336,-11348.696,-15946.048,-286.371,-16664.611,-8716.219,-6081.887,0
15120.568,-16891.303,-14737.936,-11356.988,-15955.815,-286.862,-16669.238,-8717.225,-6078.937,0
15120.568,-16895.170,-14741.244,-11361.615,-15963.169,-290.997,-16679.631,-8730.010,-6100.126,0
15120.568,-16894.699,-14743.926,-11361.079,-15960.397,-290.439,-16676.145,-8732.983,-6088.414,0
15120.568,-16890.074,-14744.798,-11353.412,-15949.467,-290.751,-16669.305,-8736.827,-6087.900,0
15120.569,-16888.062,-14738.874,-11352.607,-15946.003,-291.400,-16668.188,-8741.723,-6099.970,0
15120.569,-16892.264,-14742.696,-11357.167,-15952.708,-291.310,-16672.322,-8739.778,-6099.434,0
15120.569,-16898.164,-14749.938,-11364.387,-15961.895,-291.444,-16675.184,-8736.671,-6086.648,0
15120.569,-16895.014,-14750.899,-11362.219,-15959.302,-291.467,-16673.865,-8737.118,-6086.782,0
15120.569,-16883.100,-14740.216,-11352.987,-15944.930,-289.120,-16663.762,-8732.335,-6082.178,0
15120.626,-16882.160,-14734.918,-11353.882,-15942.985,-290.841,-16662.867,-8737.274,-6083.452,0
15120.626,-16886.832,-14736.930,-11358.396,-15951.367,-293.590,-16670.020,-8743.533,-6091.208,0
15120.626,-16892.242,-14748.419,-11363.336,-15959.973,-297.077,-16679.699,-8740.448,-6101.266,0
15120.627,-16892.531,-14749.268,-11363.225,-15957.045,-296.876,-16678.783,-8731.910,-6098.204,0
15120.627,-16888.955,-14740.216,-11358.062,-15947.031,-296.518,-16669.037,-8730.771,-6080.546,0
15120.627,-16882.652,-14731.855,-11352.295,-15942.918,-294.641,-16666.803,-8733.899,-6083.385,0
15120.627,-16883.994,-14733.622,-11355.692,-15951.233,-296.317,-16676.324,-8735.665,-6099.031,0
15120.627,-16886.766,-14742.004,-11358.352,-15958.542,-295.736,-16682.180,-8735.419,-6096.505,0
15120.627,-16885.133,-14743.233,-11355.960,-15955.614,-296.049,-16679.855,-8736.090,-6093.846,0
15120.627,-16882.072,-14740.662,-11351.735,-15946.227,-294.529,-16671.004,-8736.917,-6090.582,0
15120.627,-16880.262,-14735.008,-11349.635,-15942.248,-291.288,-16663.248,-8743.533,-6079.138,0
15120.627,-16885.492,-14741.668,-11354.843,-15951.792,-291.802,-16670.803,-8730.613,-6087.811,0
15120.627,-16889.291,-14750.341,-11359.201,-15958.788,-291.824,-16676.570,-8718.097,-6092.840,0
15120.628,-16889.336,-14748.195,-11356.810,-15956.105,-291.266,-16673.307,-8719.058,-6080.032,0
15120.628,-16882.943,-14738.182,-11348.316,-15944.527,-290.819,-16665.371,-8720.041,-6078.512,0
15120.686,-16877.557,-14731.118,-11345.388,-15939.945,-291.109,-16661.414,-8733.899,-6076.344,0
15120.687,-16879.613,-14731.789,-11349.813,-15947.545,-294.015,-16669.730,-8733.229,-6086.022,0
15120.687,-16884.619,-14736.661,-11355.356,-15955.815,-295.110,-16676.301,-8718.700,-6094.024,0
15120.687,-16887.123,-14740.327,-11355.178,-15954.653,-295.021,-16672.836,-8718.320,-6087.296,0
15120.687,-16881.758,-14733.443,-11345.902,-15942.583,-292.920,-16661.996,-8716.420,-6075.048,0
15120.687,-16879.055,-14730.180,-11344.002,-15939.699,-294.104,-16662.533,-8722.188,-6082.781,0
15120.688,-16884.039,-14735.119,-11350.372,-15949.244,-296.518,-16669.260,-8730.949,-6089.129,0
15120.688,-16890.922,-14743.702,-11355.715,-15959.727,-296.786,-16672.100,-8722.634,-6085.106,0
15120.688,-16887.793,-14739.009,-11353.658,-15957.827,-296.652,-16670.869,-8723.931,-6091.454,0
15120.688,-16881.379,-14731.834,-11346.483,-15947.857,-292.920,-16659.516,-8719.058,-6079.294,0
15120.688,-16880.865,-14732.594,-11344.985,-15946.204,-289.589,-16655.268,-8717.158,-6066.397,0
15120.689,-16886.855,-14736.729,-11352.652,-15955.771,-290.193,-16660.879,-8719.013,-6078.244,0
15120.689,-16893.023,-14740.931,-11357.503,-15965.784,-289.992,-16666.980,-8715.861,-6077.842,0
15120.689,-16889.225,-14733.421,-11356.116,-15963.861,-291.936,-16666.064,-8723.707,-6077.998,0
15120.689,-16874.852,-14719.965,-11346.617,-15948.998,-292.048,-16659.918,-8729.407,-6094.292,0
15120.747,-16873.377,-14716.210,-11345.589,-15946.249,-290.304,-16654.262,-8721.695,-6079.809,0
15120.747,-16879.814,-14719.831,-11353.032,-15955.212,-289.097,-16655.090,-8713.984,-6060.586,0
15120.747,-16882.541,-14727.185,-11356.072,-15962.498,-292.160,-16664.590,-8718.029,-6076.590,0
15120.748,-16878.539,-14727.788,-11353.211,-15959.458,-293.143,-16664.834,-8721.941,-6081.843,0
15120.748,-16873.756,-14720.658,-11346.506,-15949.803,-290.662,-16654.375,-8707.793,-6061.145,0
15120.748,-16870.471,-14717.216,-11343.443,-15946.114,-288.807,-16653.547,-8708.820,-6068.812,0
15120.748,-16871.678,-14723.474,-11346.952,-15951.814,-291.131,-16662.465,-8724.602,-6082.692,0
15120.749,-16876.484,-14726.916,-11351.378,-15960.397,-293.389,-16669.752,-8721.628,-6079.854,0
15120.749,-16874.158,-14720.747,-11347.713,-15957.648,-292.093,-16666.242,-8714.543,-6074.578,0
15120.749,-16869.152,-14718.557,-11340.202,-15947.724,-289.902,-16657.771,-8706.451,-6076.434,0
15120.749,-16870.180,-14717.037,-11337.900,-15946.695,-286.482,-16652.609,-8698.874,-6068.767,0
15120.749,-16873.869,-14713.080,-11341.856,-15953.691,-287.555,-16658.465,-8706.317,-6071.382,0
15120.750,-16876.104,-14716.075,-11344.092,-15961.582,-288.695,-16666.533,-8702.674,-6085.017,0
15120.750,-16874.762,-14716.635,-11342.862,-15960.263,-287.086,-16662.242,-8703.836,-6076.143,0
15120.750,-16868.303,-14711.538,-11337.609,-15950.764,-285.968,-16654.330,-8703.277,-6073.081,0
15120.807,-16869.219,-14712.119,-11336.179,-15948.953,-282.325,-16645.992,-8694.404,-6052.204,0
15120.807,-16877.266,-14725.150,-11340.806,-15959.257,-285.521,-16654.217,-8706.272,-6067.023,0
15120.807,-16884.195,-14733.957,-11347.354,-15968.332,-285.901,-16658.486,-8701.243,-6065.750,0
15120.807,-16884.932,-14729.420,-11346.170,-15965.940,-283.510,-16656.654,-8689.174,-6065.526,0
15120.807,-16881.758,-14726.648,-11337.453,-15954.496,-278.324,-16641.455,-8687.386,-6041.207,0
15120.807,-16880.484,-14730.716,-11336.269,-15950.897,-275.418,-16639.197,-8689.441,-6045.454,0
15120.807,-16884.039,-14735.477,-11342.639,-15957.871,-278.190,-16649.859,-8695.723,-6067.247,0
15120.808,-16890.834,-14736.862,-11348.204,-15967.550,-282.347,-16658.062,-8700.395,-6072.008,0
15120.808,-16891.348,-14735.119,-11347.399,-15965.605,-281.364,-16654.820,-8699.880,-6066.755,0
15120.808,-16886.385,-14730.851,-11341.879,-15955.637,-280.269,-16645.770,-8695.230,-6062.195,0
15120.808,-16879.277,-14723.921,-11341.767,-15952.328,-281.230,-16642.975,-8707.904,-6059.088,0
15120.808,-16879.166,-14721.574,-11343.443,-15958.542,-281.610,-16647.445,-8712.151,-6054.954,0
15120.808,-16887.703,-14731.565,-11349.120,-15968.958,-284.784,-16656.318,-8692.951,-6057.278,0
15120.808,-16885.805,-14726.380,-11346.506,-15965.113,-283.979,-16653.525,-8693.398,-6044.895,0
15120.808,-16878.025,-14718.489,-11335.620,-15950.339,-281.096,-16648.094,-8678.646,-6053.791,0
15120.867,-16874.494,-14721.396,-11334.927,-15946.159,-283.152,-16648.385,-8682.580,-6069.102,0
15120.867,-16882.809,-14734.739,-11344.226,-15954.229,-284.851,-16652.541,-8691.945,-6055.624,0
15120.867,-16886.385,-14733.019,-11350.350,-15961.157,-289.857,-16659.939,-8710.609,-6058.351,0
15120.867,-16883.971,-14727.788,-11347.288,-15958.854,-292.182,-16663.383,-8704.708,-6070.488,0
15120.868,-16873.152,-14710.733,-11338.548,-15945.488,-289.209,-16653.078,-8703.814,-6073.751,0
15120.868,-16869.531,-14712.745,-11335.106,-15941.688,-284.515,-16644.092,-8701.892,-6055.512,0
15120.868,-16874.248,-14732.728,-11340.270,-15949.780,-287.198,-16652.922,-8728.558,-6072.790,0
15120.868,-16882.988,-14735.477,-11349.635,-15959.794,-288.427,-16655.424,-8741.343,-6051.712,0
15120.868,-16879.500,-14722.446,-11348.025,-15957.380,-286.728,-16657.033,-8698.159,-6068.052,0
15120.868,-16871.275,-14716.612,-11342.146,-15946.450,-286.572,-16652.027,-8696.572,-6075.562,0
15120.868,-16868.660,-14712.388,-11341.029,-15943.298,-288.941,-16653.436,-8711.816,-6088.816,0
15120.868,-16871.588,-14716.188,-11347.020,-15949.244,-289.455,-16657.615,-8726.770,-6092.929,0
15120.868,-16876.238,-14725.978,-11356.072,-15957.626,-292.964,-16662.242,-8770.444,-6087.654,0
15120.868,-16872.750,-14732.504,-11354.284,-15954.854,-294.887,-16666.512,-8773.216,-6107.838,0
15120.868,-16868.951,-14721.686,-11348.518,-15944.438,-290.282,-16652.943,-8743.511,-6083.273,0
15120.928,-16869.287,-14708.834,-11349.590,-15942.561,-288.807,-16648.271,-8732.737,-6064.721,0
15120.928,-16868.906,-14708.744,-11353.770,-15949.534,-290.573,-16659.426,-8727.529,-6083.362,0
15120.928,-16870.068,-14711.516,-11353.859,-15954.787,-291.958,-16667.227,-8731.038,-6094.918,0
15120.928,-16876.059,-14721.194,-11350.931,-15953.044,-291.243,-16666.980,-8735.821,-6083.653,0
15120.928,-16871.924,-14718.646,-11343.197,-15942.314,-290.886,-16660.186,-8737.767,-6093.108,0
15120.928,-16869.330,-14719.451,-11339.956,-15939.208,-288.360,-16651.805,-8735.934,-6077.685,0
15120.928,-16877.266,-14728.727,-11347.556,-15949.064,-289.924,-16658.330,-8743.265,-6079.071,0
15120.928,-16883.145,-14735.969,-11351.423,-15958.229,-292.897,-16667.047,-8747.780,-6087.073,0
15120.928,-16877.557,-14734.449,-11347.221,-15953.938,-291.489,-16663.807,-8737.990,-6086.626,0
15120.928,-16872.975,-14736.595,-11341.633,-15942.807,-289.142,-16652.520,-8727.484,-6075.472,0
15120.928,-16868.393,-14728.704,-11339.174,-15938.604,-288.382,-16650.127,-8735.732,-6077.283,0
15120.928,-16868.840,-14715.919,-11340.448,-15944.080,-289.835,-16658.129,-8755.559,-6093.242,0
15120.929,-16874.113,-14721.663,-11343.778,-15953.245,-292.227,-16663.918,-8761.370,-6094.605,0
15120.929,-16878.719,-14731.789,-11343.152,-15953.714,-289.500,-16653.748,-8747.914,-6056.764,0
15120.929,-16874.158,-14726.111,-11335.039,-15942.203,-284.851,-16644.248,-8717.203,-6053.277,0
15120.987,-16872.191,-14714.131,-11332.916,-15938.671,-284.582,-16645.389,-8715.839,-6068.141,0
15120.987,-16875.209,-14716.679,-11340.001,-15945.980,-287.980,-16655.895,-8729.451,-6079.943,0
