timestamps,Fz,F3,C4,Cz,Pz,P3,O2,O1,Marker
14771.403,-17203.109,-15065.902,-11593.180,-15740.456,-1211.822,-17211.223,-9032.474,-6716.453,0
14771.404,-17198.639,-15062.304,-11590.788,-15734.466,-1213.834,-17207.871,-9031.379,-6715.671,0
14771.404,-17193.432,-15058.393,-11586.272,-15724.027,-1213.320,-17199.266,-9032.810,-6713.525,0
14771.404,-17192.537,-15057.521,-11587.167,-15725.101,-1213.119,-17199.041,-9033.658,-6713.838,0
14771.404,-17192.672,-15059.421,-11587.100,-15730.532,-1210.861,-17201.725,-9027.803,-6708.295,0
14771.404,-17192.336,-15054.414,-11588.799,-15735.762,-1213.096,-17205.457,-9025.522,-6706.351,0
14771.404,-17187.418,-15048.356,-11584.663,-15729.728,-1215.287,-17200.383,-9022.550,-6703.132,0
14771.404,-17184.312,-15045.384,-11579.970,-15720.272,-1216.896,-17193.990,-9023.042,-6704.562,0
14771.404,-17185.451,-15044.691,-11581.020,-15720.720,-1216.583,-17193.699,-9024.092,-6706.552,0
14771.404,-17190.838,-15051.062,-11586.071,-15729.369,-1216.225,-17198.662,-9022.818,-6704.048,0
14771.404,-17191.822,-15053.252,-11587.145,-15732.142,-1215.533,-17200.986,-9020.113,-6702.528,0
14771.404,-17190.391,-15052.380,-11586.161,-15729.280,-1218.148,-17200.047,-9021.768,-6705.769,0
14771.405,-17181.943,-15042.479,-11578.449,-15717.657,-1214.750,-17190.838,-9021.656,-6704.115,0
14771.405,-17182.814,-15042.456,-11580.372,-15718.842,-1214.840,-17191.531,-9024.249,-6705.322,0
14771.405,-17189.297,-15049.362,-11586.250,-15728.274,-1214.884,-17196.783,-9022.482,-6704.428,0
14771.464,-17192.314,-15053.766,-11588.374,-15733.438,-1215.018,-17200.338,-9019.688,-6701.880,0
14771.464,-17190.861,-15051.643,-11586.295,-15728.386,-1213.677,-17196.896,-9019.890,-6701.880,0
14771.464,-17188.268,-15048.692,-11583.031,-15720.183,-1211.196,-17189.207,-9021.566,-6702.081,0
14771.464,-17191.264,-15051.933,-11586.139,-15722.463,-1211.174,-17189.699,-9022.036,-6702.707,0
14771.464,-17197.344,-15059.645,-11590.430,-15731.762,-1212.560,-17195.822,-9020.203,-6701.187,0
14771.464,-17202.506,-15062.863,-11592.643,-15737.350,-1212.649,-17199.668,-9018.393,-6700.628,0
14771.464,-17201.076,-15061.008,-11586.295,-15730.688,-1209.364,-17194.393,-9016.381,-6699.578,0
14771.464,-17201.768,-15064.674,-11582.227,-15722.239,-1208.246,-17189.855,-9021.544,-6703.646,0
14771.464,-17207.916,-15072.608,-11585.356,-15724.854,-1207.553,-17192.939,-9025.165,-6708.183,0
14771.464,-17216.744,-15079.426,-11593.022,-15734.556,-1207.128,-17200.227,-9023.556,-6708.228,0
14771.465,-17221.146,-15084.835,-11596.420,-15741.686,-1208.604,-17206.439,-9021.074,-6706.038,0
14771.465,-17221.506,-15086.444,-11592.486,-15738.333,-1210.034,-17204.428,-9020.158,-6704.786,0
14771.465,-17218.264,-15079.806,-11586.116,-15727.224,-1209.721,-17196.828,-9019.666,-6704.361,0
14771.465,-17219.984,-15081.348,-11587.837,-15728.051,-1210.146,-17198.416,-9018.951,-6704.875,0
14771.465,-17225.797,-15087.964,-11593.895,-15737.126,-1211.666,-17204.295,-9016.738,-6703.154,0
14771.524,-17229.307,-15095.697,-11595.951,-15742.736,-1212.068,-17205.457,-9011.240,-6697.164,0
14771.524,-17223.070,-15090.758,-11587.592,-15735.271,-1208.246,-17196.695,-9003.663,-6689.564,0
14771.524,-17215.582,-15080.208,-11580.818,-15725.078,-1207.374,-17188.424,-9004.713,-6689.944,0
14771.525,-17215.717,-15077.101,-11581.422,-15725.950,-1207.262,-17188.379,-9005.518,-6690.503,0
14771.525,-17220.410,-15079.291,-11584.999,-15734.891,-1207.687,-17192.717,-9003.439,-6687.441,0
14771.525,-17224.322,-15082.645,-11587.592,-15740.791,-1208.961,-17196.740,-9000.153,-6685.832,0
14771.525,-17221.885,-15079.135,-11584.283,-15736.880,-1209.565,-17193.789,-8999.103,-6686.122,0
14771.525,-17215.516,-15071.200,-11576.349,-15726.396,-1206.927,-17185.340,-8999.394,-6684.870,0
14771.525,-17217.885,-15073.793,-11579.254,-15727.962,-1206.435,-17185.430,-9002.366,-6687.463,0
14771.525,-17221.104,-15077.123,-11583.770,-15735.784,-1205.161,-17188.336,-9000.042,-6683.932,0
14771.525,-17222.623,-15079.381,-11587.927,-15743.139,-1206.681,-17192.984,-8999.550,-6683.306,0
14771.525,-17221.951,-15079.873,-11586.161,-15741.015,-1208.514,-17192.895,-9001.293,-6685.653,0
14771.525,-17215.447,-15074.731,-11580.596,-15729.750,-1208.939,-17187.039,-9005.093,-6688.849,0
14771.525,-17213.838,-15073.458,-11580.416,-15729.012,-1210.235,-17187.373,-9007.529,-6691.263,0
14771.525,-17217.303,-15075.827,-11585.513,-15737.170,-1210.772,-17192.672,-9008.849,-6691.375,0
14771.584,-17217.885,-15081.750,-11587.793,-15742.468,-1210.638,-17195.332,-9008.110,-6689.899,0
14771.584,-17215.426,-15083.181,-11584.775,-15737.796,-1209.855,-17193.074,-9009.362,-6690.816,0
14771.584,-17211.045,-15075.335,-11580.774,-15727.380,-1208.984,-17187.553,-9011.799,-6694.929,0
14771.584,-17211.312,-15069.256,-11584.060,-15728.073,-1209.095,-17187.105,-9015.845,-6697.499,0
14771.584,-17213.748,-15072.810,-11588.128,-15736.656,-1208.917,-17193.900,-9014.057,-6695.398,0
14771.584,-17215.357,-15076.117,-11590.497,-15742.043,-1208.917,-17199.824,-9012.938,-6696.001,0
14771.584,-17212.096,-15070.888,-11589.357,-15737.886,-1211.576,-17198.818,-9014.682,-6697.656,0
14771.585,-17206.016,-15064.048,-11583.725,-15726.195,-1211.554,-17191.799,-9015.397,-6696.493,0
14771.585,-17204.250,-15064.405,-11582.764,-15724.229,-1210.213,-17191.264,-9013.855,-6695.733,0
14771.585,-17209.748,-15072.832,-11589.134,-15734.376,-1212.403,-17199.779,-9014.480,-6697.142,0
14771.585,-17209.568,-15074.128,-11589.760,-15738.892,-1212.962,-17202.641,-9012.089,-6695.420,0
14771.585,-17203.199,-15068.585,-11584.887,-15733.304,-1212.962,-17198.482,-9011.821,-6694.280,0
14771.585,-17196.582,-15058.951,-11579.567,-15723.916,-1213.119,-17191.688,-9014.146,-6696.605,0
14771.585,-17193.834,-15054.123,-11578.360,-15722.194,-1210.928,-17188.738,-9011.128,-6694.370,0
14771.585,-17198.527,-15059.801,-11583.166,-15730.800,-1211.442,-17193.723,-9009.184,-6691.464,0
14771.643,-17202.461,-15066.327,-11586.451,-15737.752,-1213.186,-17196.225,-9008.245,-6689.005,0
14771.644,-17201.590,-15066.819,-11584.261,-15734.511,-1213.432,-17193.230,-9006.770,-6687.776,0
14771.644,-17196.918,-15057.722,-11577.891,-15723.335,-1211.152,-17185.361,-9009.340,-6691.464,0
14771.644,-17195.711,-15053.944,-11578.740,-15723.178,-1211.643,-17184.602,-9012.760,-6695.622,0
14771.644,-17196.449,-15052.492,-11583.657,-15732.343,-1213.834,-17189.453,-9012.983,-6695.286,0
14771.644,-17198.975,-15052.983,-11586.116,-15738.980,-1213.901,-17193.074,-9011.240,-6691.956,0
14771.644,-17197.945,-15051.195,-11581.668,-15733.772,-1212.627,-17187.129,-9008.691,-6688.335,0
14771.644,-17191.643,-15043.842,-11573.756,-15722.128,-1209.542,-17176.443,-9006.211,-6685.116,0
14771.644,-17192.492,-15047.351,-11576.035,-15724.430,-1210.526,-17177.359,-9008.021,-6685.116,0
14771.644,-17197.053,-15053.944,-11582.830,-15733.661,-1210.436,-17183.529,-9005.696,-6682.210,0
14771.644,-17197.521,-15057.074,-11585.155,-15737.662,-1208.514,-17185.898,-9002.321,-6679.864,0
14771.644,-17194.393,-15057.678,-11583.434,-15733.460,-1209.676,-17185.117,-9003.752,-6680.981,0
14771.644,-17191.375,-15051.643,-11579.902,-15724.542,-1211.465,-17182.992,-9010.346,-6687.776,0
14771.645,-17191.777,-15051.240,-11580.797,-15724.072,-1212.068,-17186.412,-9014.950,-6695.041,0
14771.645,-17196.807,-15058.526,-11584.618,-15732.521,-1213.074,-17195.219,-9016.046,-6698.661,0
14771.705,-17200.359,-15064.204,-11587.859,-15739.070,-1214.169,-17202.371,-9017.722,-6701.254,0
14771.705,-17197.254,-15060.092,-11586.161,-15734.310,-1215.220,-17201.434,-9021.544,-6705.568,0
14771.705,-17191.576,-15053.922,-11582.316,-15723.536,-1214.639,-17195.891,-9026.015,-6710.933,0
14771.705,-17191.754,-15054.437,-11586.228,-15724.475,-1215.778,-17196.404,-9030.127,-6714.442,0
14771.705,-17196.963,-15060.896,-11592.599,-15733.930,-1216.695,-17203.758,-9031.580,-6716.051,0
14771.705,-17200.762,-15065.143,-11597.068,-15740.479,-1216.874,-17208.049,-9031.915,-6714.598,0
14771.705,-17197.477,-15061.365,-11592.821,-15735.941,-1216.225,-17203.467,-9029.144,-6710.262,0
14771.706,-17190.928,-15055.777,-11583.948,-15725.056,-1213.722,-17193.543,-9027.981,-6708.630,0
14771.706,-17190.973,-15056.493,-11585.558,-15725.056,-1213.342,-17192.828,-9030.909,-6709.949,0
14771.706,-17195.666,-15058.639,-11591.190,-15733.304,-1212.515,-17197.477,-9028.473,-6706.730,0
14771.706,-17197.902,-15060.359,-11593.447,-15739.584,-1211.666,-17201.479,-9025.210,-6703.735,0
14771.706,-17194.615,-15058.013,-11590.922,-15736.231,-1208.648,-17199.533,-9025.276,-6704.227,0
14771.706,-17190.592,-15049.921,-11585.714,-15726.151,-1208.760,-17192.604,-9027.467,-6706.060,0
14771.706,-17189.877,-15048.580,-11582.361,-15723.580,-1207.754,-17189.297,-9026.729,-6706.216,0
14771.706,-17196.561,-15059.220,-11585.759,-15732.767,-1208.447,-17195.734,-9024.360,-6705.680,0
14771.764,-17199.287,-15063.646,-11588.150,-15740.188,-1209.319,-17199.645,-9020.158,-6703.109,0
14771.764,-17198.170,-15063.869,-11586.697,-15736.768,-1208.492,-17196.582,-9017.812,-6699.399,0
14771.764,-17194.615,-15059.555,-11582.093,-15726.710,-1207.307,-17188.805,-9020.650,-6700.360,0
14771.764,-17196.539,-15058.750,-11583.948,-15727.626,-1207.978,-17188.648,-9023.936,-6704.428,0
14771.764,-17201.812,-15057.633,-11588.799,-15736.634,-1207.799,-17194.348,-9022.640,-6704.271,0
14771.764,-17203.377,-15058.661,-11590.475,-15741.283,-1207.933,-17198.236,-9020.605,-6701.075,0
14771.765,-17200.316,-15055.465,-11588.128,-15737.237,-1208.939,-17196.873,-9021.410,-6702.394,0
14771.765,-17195.219,-15052.156,-11583.568,-15727.671,-1210.034,-17191.510,-9024.315,-6705.635,0
14771.765,-17194.750,-15055.151,-11581.690,-15725.994,-1208.291,-17189.252,-9023.265,-6705.277,0
14771.765,-17200.158,-15061.298,-11586.831,-15734.019,-1208.089,-17194.482,-9023.020,-6704.160,0
14771.765,-17206.395,-15064.986,-11591.324,-15742.133,-1209.319,-17199.578,-9021.097,-6702.752,0
14771.765,-17203.490,-15059.041,-11588.195,-15738.735,-1209.654,-17198.707,-9020.516,-6704.674,0
14771.765,-17195.420,-15050.592,-11579.925,-15727.447,-1207.598,-17191.330,-9020.561,-6705.792,0
14771.765,-17193.900,-15052.291,-11579.634,-15726.218,-1207.061,-17189.832,-9020.873,-6704.383,0
14771.765,-17202.148,-15060.404,-11587.145,-15735.024,-1207.978,-17196.561,-9021.812,-6704.964,0
14771.824,-17203.557,-15061.030,-11590.005,-15739.271,-1207.754,-17200.404,-9021.254,-6703.981,0
14771.824,-17198.506,-15057.856,-11586.720,-15734.310,-1209.140,-17198.594,-9020.852,-6703.422,0
14771.824,-17193.654,-15053.363,-11582.361,-15725.279,-1210.347,-17193.521,-9023.757,-6706.306,0
14771.825,-17194.861,-15056.157,-11583.813,-15725.078,-1210.056,-17192.492,-9025.791,-6708.027,0
14771.825,-17198.572,-15061.991,-11588.463,-15734.153,-1210.436,-17197.164,-9025.947,-6708.407,0
14771.825,-17200.404,-15064.763,-11590.363,-15740.456,-1209.632,-17200.137,-9023.243,-6705.054,0
14771.825,-17197.789,-15059.979,-11588.128,-15736.880,-1210.213,-17196.426,-9022.371,-6703.244,0
14771.825,-17192.156,-15054.012,-11582.719,-15726.956,-1210.772,-17190.033,-9022.461,-6703.199,0
14771.825,-17191.375,-15054.280,-11584.194,-15727.179,-1211.107,-17190.078,-9022.706,-6703.713,0
14771.825,-17192.783,-15055.062,-11587.927,-15734.265,-1210.414,-17194.326,-9019.756,-6699.310,0
14771.825,-17196.561,-15058.571,-11592.643,-15741.328,-1212.560,-17200.359,-9018.393,-6698.080,0
14771.825,-17195.576,-15058.169,-11588.799,-15737.014,-1211.822,-17197.186,-9015.732,-6696.739,0
14771.825,-17192.559,-15051.240,-11582.160,-15725.302,-1211.152,-17189.988,-9016.225,-6695.309,0
14771.825,-17193.207,-15049.116,-11582.808,-15724.162,-1213.096,-17191.420,-9021.142,-6700.092,0
14771.825,-17198.059,-15055.800,-11588.619,-15732.521,-1212.739,-17197.701,-9021.142,-6701.433,0
14771.884,-17201.322,-15061.254,-11590.854,-15738.578,-1211.844,-17202.104,-9019.688,-6702.260,0
14771.885,-17199.914,-15059.577,-11588.799,-15734.958,-1211.487,-17199.645,-9018.348,-6699.645,0
14771.885,-17194.885,-15054.101,-11584.172,-15724.854,-1210.079,-17193.006,-9020.248,-6699.019,0
14771.885,-17195.734,-15053.453,-11585.691,-15724.653,-1210.883,-17193.990,-9026.060,-6704.294,0
14771.885,-17200.025,-15057.230,-11592.151,-15732.812,-1211.330,-17200.359,-9027.445,-6705.277,0
14771.885,-17203.221,-15062.170,-11596.175,-15738.534,-1212.157,-17204.496,-9025.590,-6703.825,0
14771.885,-17202.395,-15060.092,-11595.683,-15735.784,-1212.470,-17201.434,-9024.450,-6703.534,0
14771.885,-17199.936,-15056.604,-11590.140,-15726.889,-1211.375,-17193.275,-9023.913,-6701.969,0
14771.885,-17200.025,-15055.710,-11590.027,-15726.821,-1210.436,-17191.375,-9023.891,-6702.148,0
14771.885,-17204.562,-15060.314,-11594.789,-15735.092,-1210.056,-17197.209,-9023.042,-6701.411,0
14771.885,-17206.641,-15065.947,-11596.778,-15741.328,-1210.325,-17200.986,-9020.337,-6698.416,0
14771.885,-17203.244,-15062.706,-11590.854,-15736.500,-1209.140,-17197.074,-9018.303,-6696.672,0
14771.885,-17197.678,-15054.950,-11584.730,-15726.039,-1208.045,-17189.430,-9019.465,-6697.410,0
14771.886,-17195.264,-15051.933,-11585.334,-15723.760,-1207.844,-17187.664,-9021.119,-6698.661,0
14771.886,-17197.455,-15054.235,-11590.050,-15730.599,-1208.715,-17193.543,-9018.639,-6697.007,0
14771.945,-17198.170,-15055.487,-11592.665,-15737.350,-1210.615,-17201.098,-9019.354,-6697.745,0
14771.945,-17193.834,-15052.425,-11588.955,-15733.639,-1211.442,-17200.404,-9021.254,-6699.466,0
14771.945,-17190.883,-15048.558,-11583.657,-15724.363,-1211.889,-17194.348,-9022.863,-6703.087,0
14771.945,-17192.180,-15047.574,-11583.657,-15722.485,-1210.615,-17193.342,-9021.589,-6705.076,0
14771.945,-17199.824,-15054.816,-11588.820,-15731.426,-1211.219,-17200.182,-9021.455,-6705.948,0
14771.945,-17204.316,-15061.478,-11592.084,-15739.160,-1212.604,-17205.166,-9018.616,-6702.752,0
14771.945,-17201.053,-15060.650,-11588.642,-15737.104,-1214.728,-17204.674,-9018.616,-6702.461,0
14771.945,-17195.465,-15054.369,-11581.668,-15725.815,-1213.186,-17196.873,-9019.019,-6703.154,0
14771.946,-17196.359,-15056.046,-11581.937,-15724.586,-1211.375,-17195.086,-9019.421,-6705.792,0
14771.946,-17201.725,-15062.416,-11587.748,-15733.817,-1212.046,-17200.203,-9018.438,-6703.780,0
14771.946,-17203.893,-15064.428,-11593.291,-15741.283,-1214.214,-17204.406,-9019.085,-6702.215,0
14771.946,-17203.824,-15065.724,-11593.872,-15739.204,-1215.510,-17202.148,-9020.628,-6703.601,0
14771.946,-17198.951,-15060.047,-11587.859,-15726.934,-1213.208,-17192.471,-9022.147,-6703.690,0
14771.946,-17197.029,-15058.191,-11588.530,-15725.302,-1213.923,-17192.090,-9025.389,-6706.283,0
14771.946,-17199.846,-15060.181,-11594.297,-15733.103,-1214.728,-17198.617,-9026.596,-6707.580,0
14772.004,-17201.768,-15062.952,-11599.013,-15740.434,-1216.136,-17203.602,-9026.171,-6706.328,0
14772.004,-17195.666,-15057.789,-11595.348,-15735.248,-1213.834,-17200.158,-9023.891,-6702.774,0
14772.004,-17188.580,-15052.246,-11589.000,-15724.475,-1212.180,-17194.102,-9024.986,-6703.556,0
14772.004,-17186.502,-15046.457,-11587.569,-15722.239,-1210.593,-17194.012,-9024.919,-6705.903,0
14772.004,-17190.213,-15046.725,-11592.866,-15730.711,-1211.219,-17200.359,-9026.350,-6706.283,0
14772.004,-17193.207,-15051.419,-11595.884,-15736.991,-1210.593,-17204.361,-9022.863,-6704.093,0
14772.005,-17191.822,-15053.386,-11592.419,-15733.661,-1210.101,-17203.043,-9024.293,-6706.127,0
14772.005,-17187.754,-15050.972,-11585.155,-15723.536,-1209.721,-17196.896,-9025.947,-6707.982,0
14772.005,-17189.141,-15053.520,-11585.334,-15722.775,-1209.721,-17195.533,-9026.395,-6708.340,0
14772.005,-17192.135,-15057.945,-11589.760,-15729.973,-1208.693,-17200.428,-9026.395,-6706.507,0
14772.005,-17194.795,-15058.951,-11594.141,-15736.566,-1210.079,-17205.770,-9025.210,-6703.825,0
14772.005,-17193.834,-15058.325,-11591.234,-15732.968,-1210.213,-17205.232,-9024.763,-6706.306,0
14772.005,-17189.342,-15054.973,-11585.065,-15723.312,-1210.481,-17201.926,-9027.602,-6711.827,0
14772.005,-17188.268,-15051.374,-11585.669,-15722.150,-1210.883,-17200.695,-9031.088,-6715.604,0
14772.005,-17193.654,-15055.732,-11590.698,-15730.264,-1213.052,-17206.865,-9031.849,-6717.548,0
14772.064,-17200.740,-15060.874,-11595.839,-15738.824,-1215.309,-17212.766,-9033.524,-6717.347,0
14772.064,-17201.479,-15063.310,-11593.604,-15735.985,-1214.884,-17211.090,-9032.407,-6717.459,0
14772.064,-17197.543,-15058.393,-11586.943,-15725.548,-1214.750,-17204.383,-9029.479,-6717.571,0
14772.064,-17197.344,-15057.052,-11585.669,-15723.670,-1214.504,-17203.377,-9030.619,-6720.074,0
14772.064,-17202.551,-15064.473,-11591.593,-15732.387,-1215.309,-17209.525,-9029.702,-6719.627,0
14772.065,-17205.412,-15069.792,-11595.996,-15738.154,-1215.465,-17212.297,-9027.557,-6713.436,0
14772.065,-17203.445,-15069.166,-11594.654,-15734.936,-1215.622,-17209.234,-9028.183,-6713.615,0
14772.065,-17198.014,-15063.042,-11587.837,-15723.089,-1213.007,-17199.422,-9027.132,-6712.854,0
14772.065,-17199.846,-15063.824,-11589.692,-15722.910,-1213.409,-17199.221,-9030.060,-6716.364,0
14772.065,-17203.512,-15066.506,-11593.560,-15730.309,-1212.895,-17203.535,-9026.238,-6712.497,0
14772.065,-17206.350,-15070.127,-11596.465,-15737.863,-1213.454,-17208.004,-9023.712,-6706.954,0
14772.065,-17206.105,-15072.094,-11595.683,-15737.371,-1213.856,-17206.350,-9024.092,-6706.730,0
14772.065,-17203.154,-15065.992,-11589.916,-15726.978,-1212.627,-17197.834,-9022.617,-6706.574,0
14772.065,-17200.762,-15062.886,-11587.167,-15723.849,-1211.286,-17195.375,-9019.197,-6704.227,0
14772.065,-17202.416,-15065.947,-11589.782,-15730.510,-1210.861,-17201.277,-9016.448,-6703.109,0
14772.124,-17206.193,-15070.262,-11593.783,-15738.064,-1212.113,-17206.529,-9015.889,-6701.545,0
14772.124,-17204.854,-15068.093,-11590.520,-15734.332,-1210.995,-17202.908,-9014.548,-6697.678,0
14772.124,-17198.863,-15060.002,-11583.411,-15723.156,-1209.229,-17195.846,-9012.916,-6698.103,0
14772.124,-17195.822,-15056.270,-11581.154,-15719.133,-1208.201,-17193.408,-9015.845,-6700.628,0
14772.125,-17202.148,-15064.159,-11588.038,-15728.543,-1210.056,-17200.986,-9019.286,-6703.668,0
14772.125,-17207.826,-15072.966,-11593.537,-15737.350,-1211.286,-17206.641,-9016.828,-6702.774,0
14772.125,-17205.859,-15068.786,-11590.587,-15735.338,-1211.062,-17204.115,-9013.922,-6700.762,0
14772.125,-17201.322,-15060.583,-11584.082,-15725.302,-1209.475,-17194.816,-9017.274,-6701.388,0
14772.125,-17200.920,-15058.684,-11584.351,-15723.692,-1209.140,-17191.889,-9018.348,-6703.400,0
14772.125,-17205.412,-15065.434,-11590.922,-15732.655,-1212.090,-17199.555,-9017.834,-6702.819,0
14772.125,-17208.631,-15070.977,-11593.738,-15738.578,-1213.968,-17205.635,-9019.756,-6703.020,0
14772.125,-17206.127,-15063.399,-11590.877,-15735.092,-1215.063,-17203.154,-9020.694,-6704.629,0
14772.125,-17204.160,-15058.169,-11587.569,-15725.950,-1216.181,-17196.783,-9025.434,-6709.569,0
14772.125,-17207.244,-15061.812,-11589.871,-15725.279,-1216.583,-17195.867,-9031.982,-6712.162,0
14772.125,-17208.027,-15064.338,-11593.224,-15732.990,-1216.136,-17201.725,-9033.145,-6712.318,0
14772.184,-17208.295,-15065.947,-11595.772,-15738.914,-1215.957,-17206.172,-9035.961,-6710.530,0
14772.184,-17210.664,-15069.300,-11596.800,-15738.512,-1217.231,-17206.127,-9031.245,-6710.620,0
14772.185,-17207.959,-15066.618,-11591.078,-15728.229,-1215.734,-17198.326,-9025.478,-6712.475,0
14772.185,-17206.373,-15063.690,-11591.324,-15725.368,-1215.577,-17197.143,-9031.669,-6716.744,0
14772.185,-17211.156,-15071.155,-11597.806,-15733.571,-1216.538,-17203.736,-9033.949,-6718.309,0
14772.185,-17215.023,-15077.525,-11602.455,-15740.479,-1216.404,-17209.324,-9031.245,-6716.833,0
14772.185,-17214.195,-15074.508,-11601.248,-15738.914,-1216.069,-17208.406,-9031.938,-6718.197,0
14772.185,-17211.402,-15069.032,-11595.884,-15729.839,-1213.163,-17200.248,-9032.541,-6716.811,0
14772.185,-17213.705,-15071.200,-11595.258,-15728.521,-1212.113,-17198.527,-9033.100,-6718.443,0
14772.185,-17218.375,-15079.783,-11599.304,-15736.611,-1213.320,-17206.865,-9034.844,-6720.745,0
14772.185,-17221.215,-15082.823,-11601.763,-15741.909,-1214.460,-17213.391,-9034.441,-6718.957,0
14772.185,-17223.494,-15086.891,-11602.321,-15741.797,-1218.483,-17216.186,-9036.475,-6721.930,0
14772.185,-17218.242,-15080.052,-11596.331,-15731.918,-1219.936,-17211.805,-9037.324,-6725.886,0
14772.185,-17212.229,-15072.116,-11591.123,-15725.905,-1218.081,-17209.211,-9037.257,-6726.892,0
14772.186,-17212.943,-15072.050,-11592.330,-15731.762,-1219.265,-17213.102,-9038.621,-6727.227,0
14772.245,-17217.459,-15075.514,-11597.493,-15740.992,-1223.244,-17220.275,-9042.443,-6731.764,0
14772.245,-17215.627,-15072.765,-11596.241,-15739.160,-1223.646,-17214.867,-9039.202,-6720.052,0
14772.245,-17209.301,-15065.769,-11588.754,-15727.917,-1221.188,-17203.691,-9031.424,-6715.090,0
14772.245,-17208.541,-15063.734,-11587.904,-15725.347,-1218.818,-17201.947,-9029.993,-6716.833,0
14772.245,-17212.564,-15069.702,-11593.738,-15733.304,-1218.639,-17206.664,-9026.729,-6712.944,0
14772.245,-17214.129,-15074.240,-11597.471,-15740.366,-1219.712,-17210.531,-9027.646,-6709.681,0
14772.245,-17211.379,-15071.580,-11595.996,-15738.959,-1221.366,-17209.525,-9029.702,-6714.732,0
14772.245,-17204.271,-15062.326,-11590.162,-15727.895,-1221.098,-17202.283,-9031.691,-6720.097,0
14772.245,-17204.227,-15060.918,-11591.503,-15725.480,-1221.165,-17198.996,-9036.609,-6718.242,0
14772.245,-17209.703,-15064.941,-11597.851,-15733.393,-1222.573,-17205.277,-9039.202,-6715.582,0
14772.246,-17212.699,-15067.043,-11600.801,-15740.232,-1222.573,-17209.814,-9037.973,-6714.621,0
14772.246,-17210.418,-15067.132,-11598.834,-15737.975,-1222.909,-17208.094,-9039.537,-6716.677,0
14772.246,-17205.680,-15065.970,-11592.643,-15727.224,-1221.992,-17200.807,-9041.124,-6718.219,0
14772.246,-17207.469,-15066.953,-11592.979,-15726.956,-1221.277,-17199.266,-9043.270,-6718.778,0
14772.246,-17213.123,-15072.898,-11598.812,-15735.829,-1220.405,-17205.301,-9045.460,-6721.549,0
14772.304,-17218.443,-15077.324,-11604.735,-15744.882,-1220.830,-17211.447,-9042.286,-6719.516,0
14772.304,-17215.135,-15073.212,-11602.791,-15741.238,-1218.595,-17207.490,-9037.525,-6716.409,0
14772.305,-17206.307,-15063.064,-11595.325,-15728.744,-1217.522,-17198.996,-9039.313,-6716.855,0
14772.305,-17205.166,-15060.226,-11595.124,-15726.509,-1218.505,-17197.410,-9044.343,-6721.729,0
14772.305,-17208.832,-15065.970,-11598.901,-15734.310,-1219.399,-17203.557,-9042.376,-6722.600,0
14772.305,-17210.889,-15070.708,-11603.014,-15742.244,-1221.724,-17209.928,-9042.979,-6722.332,0
14772.305,-17209.189,-15071.469,-11600.823,-15739.920,-1221.702,-17208.318,-9041.325,-6718.867,0
14772.305,-17206.061,-15068.026,-11595.906,-15729.794,-1221.366,-17203.020,-9041.974,-6724.388,0
14772.305,-17205.076,-15064.360,-11595.504,-15727.112,-1219.757,-17200.293,-9042.421,-6724.992,0
14772.305,-17209.613,-15067.937,-11600.332,-15735.226,-1219.198,-17205.523,-9042.309,-6726.937,0
14772.306,-17213.748,-15074.374,-11604.288,-15743.004,-1221.098,-17214.486,-9041.169,-6735.363,0
14772.306,-17211.111,-15072.430,-11601.182,-15740.523,-1222.283,-17214.352,-9039.582,-6734.000,0
14772.306,-17205.010,-15064.315,-11592.821,-15728.766,-1219.936,-17203.578,-9037.123,-6719.583,0
14772.306,-17205.635,-15063.266,-11592.710,-15727.269,-1219.422,-17200.762,-9040.319,-6717.951,0
14772.306,-17214.799,-15073.078,-11599.907,-15737.170,-1221.657,-17206.619,-9041.594,-6719.024,0
14772.364,-17218.197,-15074.955,-11603.193,-15742.981,-1221.500,-17210.330,-9037.928,-6717.437,0
14772.365,-17216.521,-15072.116,-11602.746,-15740.612,-1223.199,-17209.502,-9044.745,-6723.315,0
14772.365,-17210.865,-15066.998,-11597.337,-15730.397,-1224.026,-17201.590,-9048.031,-6730.535,0
14772.365,-17210.486,-15066.216,-11595.348,-15728.654,-1222.350,-17197.074,-9038.911,-6720.030,0
14772.365,-17215.113,-15073.391,-11597.985,-15735.382,-1220.293,-17198.908,-9035.000,-6708.585,0
14772.365,-17221.215,-15082.331,-11602.701,-15743.361,-1222.462,-17206.016,-9037.839,-6710.821,0
14772.365,-17220.053,-15082.152,-11602.478,-15741.439,-1224.138,-17206.709,-9040.878,-6713.034,0
14772.365,-17214.666,-15075.045,-11596.890,-15731.538,-1223.959,-17201.611,-9038.621,-6720.208,0
14772.365,-17212.832,-15073.949,-11595.034,-15728.900,-1222.708,-17202.037,-9041.459,-6729.194,0
14772.365,-17217.795,-15076.788,-11599.751,-15737.192,-1221.858,-17205.947,-9039.157,-6723.382,0
14772.365,-17222.152,-15081.929,-11603.506,-15745.597,-1220.338,-17209.055,-9035.045,-6716.610,0
14772.365,-17219.537,-15080.990,-11599.147,-15743.116,-1219.154,-17207.826,-9034.039,-6715.380,0
14772.366,-17216.766,-15079.761,-11593.939,-15734.421,-1220.159,-17202.439,-9035.357,-6716.274,0
14772.366,-17216.096,-15078.375,-11593.783,-15731.672,-1219.913,-17200.203,-9036.967,-6720.164,0
14772.366,-17222.600,-15087.003,-11599.572,-15739.360,-1221.053,-17207.021,-9036.051,-6724.835,0
14772.425,-17226.244,-15092.077,-11603.551,-15747.206,-1222.618,-17213.279,-9037.704,-6723.919,0
14772.425,-17222.221,-15088.031,-11599.975,-15745.865,-1224.853,-17214.553,-9037.638,-6725.819,0
14772.425,-17209.033,-15073.927,-11588.731,-15732.745,-1225.188,-17209.748,-9041.750,-6738.358,0
14772.425,-17202.596,-15067.043,-11585.289,-15727.805,-1226.440,-17207.400,-9047.360,-6741.286,0
14772.425,-17203.668,-15070.149,-11588.508,-15733.996,-1225.725,-17211.938,-9043.002,-6732.546,0
14772.425,-17207.312,-15075.782,-11593.560,-15743.004,-1226.306,-17218.041,-9035.805,-6724.544,0
14772.425,-17205.277,-15074.084,-11591.413,-15741.417,-1225.300,-17213.615,-9030.373,-6714.553,0
14772.425,-17199.377,-15065.098,-11585.960,-15730.845,-1224.317,-17204.941,-9031.781,-6709.256,0
14772.425,-17198.639,-15065.054,-11586.451,-15728.677,-1225.814,-17204.049,-9036.207,-6715.313,0
14772.426,-17202.439,-15070.262,-11591.928,-15737.707,-1227.312,-17210.664,-9038.755,-6721.952,0
14772.426,-17202.350,-15071.268,-11593.402,-15742.981,-1225.792,-17214.553,-9037.168,-6723.718,0
14772.426,-17200.605,-15068.585,-11592.353,-15741.193,-1226.507,-17212.318,-9037.638,-6722.310,0
14772.426,-17197.230,-15064.941,-11588.553,-15732.723,-1228.094,-17205.121,-9040.654,-6721.907,0
14772.426,-17193.990,-15061.030,-11585.267,-15727.402,-1225.412,-17199.689,-9041.415,-6721.080,0
14772.426,-17198.191,-15062.192,-11589.357,-15734.577,-1223.914,-17203.668,-9039.806,-6721.549,0
14772.426,-17202.371,-15063.712,-11593.984,-15742.400,-1224.272,-17210.039,-9039.291,-6724.567,0
14772.486,-17203.154,-15063.690,-11593.604,-15742.088,-1223.579,-17208.049,-9037.369,-6722.891,0
14772.486,-17202.551,-15064.875,-11591.011,-15735.562,-1224.697,-17202.887,-9037.659,-6722.175,0
14772.486,-17201.365,-15062.796,-11590.185,-15732.477,-1223.803,-17201.053,-9040.968,-6725.618,0
14772.486,-17204.518,-15066.663,-11594.722,-15739.227,-1223.892,-17206.016,-9044.433,-6727.696,0
14772.486,-17209.324,-15072.720,-11598.589,-15746.603,-1225.658,-17212.453,-9042.421,-6728.479,0
14772.487,-17207.424,-15070.485,-11596.510,-15743.384,-1226.083,-17211.066,-9043.873,-6726.020,0
14772.487,-17203.557,-15065.680,-11591.973,-15734.086,-1226.686,-17204.518,-9046.847,-6725.059,0
14772.487,-17201.188,-15060.628,-11591.727,-15730.733,-1226.485,-17201.590,-9045.349,-6727.070,0
14772.487,-17204.607,-15065.143,-11595.504,-15737.796,-1227.871,-17205.635,-9046.980,-6722.265,0
14772.487,-17208.139,-15071.469,-11599.975,-15745.977,-1229.368,-17212.475,-9045.036,-6721.281,0
14772.487,-17207.223,-15070.730,-11597.023,-15742.736,-1229.279,-17212.721,-9038.509,-6723.338,0
14772.487,-17203.334,-15065.344,-11590.922,-15732.924,-1230.061,-17207.736,-9038.621,-6727.808,0
14772.487,-17201.926,-15065.031,-11588.687,-15728.788,-1228.541,-17203.623,-9037.905,-6724.008,0
14772.488,-17203.980,-15067.669,-11592.710,-15735.762,-1229.502,-17207.691,-9039.582,-6719.583,0
14772.488,-17204.785,-15067.914,-11595.325,-15742.378,-1230.508,-17213.793,-9041.169,-6726.333,0
14772.546,-17200.404,-15061.857,-11589.804,-15738.489,-1228.854,-17210.775,-9040.096,-6725.461,0
14772.546,-17196.717,-15057.856,-11584.819,-15729.973,-1229.167,-17205.166,-9041.660,-6721.818,0
14772.546,-17193.945,-15057.834,-11581.400,-15725.123,-1227.893,-17202.215,-9037.012,-6720.767,0
14772.547,-17198.281,-15061.611,-11585.558,-15732.432,-1228.050,-17207.154,-9035.626,-6720.231,0
14772.547,-17203.266,-15067.423,-11590.698,-15740.546,-1229.346,-17211.111,-9036.811,-6718.644,0
14772.547,-17202.730,-15067.445,-11590.273,-15738.288,-1229.279,-17208.385,-9037.101,-6718.375,0
14772.547,-17198.750,-15063.489,-11585.893,-15728.543,-1229.659,-17201.902,-9039.604,-6720.924,0
14772.547,-17196.092,-15057.297,-11583.881,-15723.804,-1229.279,-17198.863,-9043.314,-6723.271,0
14772.547,-17201.768,-15062.215,-11589.826,-15731.471,-1229.681,-17204.719,-9044.991,-6724.701,0
14772.547,-17205.344,-15066.908,-11594.387,-15738.735,-1229.033,-17210.977,-9043.136,-6723.539,0
14772.547,-17204.518,-15066.953,-11595.146,-15739.070,-1230.620,-17212.430,-9044.835,-6724.433,0
14772.547,-17200.025,-15062.349,-11590.766,-15730.085,-1230.285,-17208.631,-9052.211,-6729.932,0
14772.547,-17199.354,-15062.036,-11589.111,-15726.106,-1227.893,-17205.635,-9053.708,-6731.921,0
14772.547,-17206.307,-15069.568,-11595.146,-15735.650,-1228.318,-17211.201,-9054.200,-6732.971,0
14772.547,-17211.246,-15076.922,-11599.236,-15743.474,-1226.105,-17214.129,-9049.126,-6727.093,0
14772.606,-17210.754,-15076.564,-11599.349,-15743.496,-1225.345,-17212.654,-9046.511,-6724.075,0
14772.606,-17204.986,-15069.278,-11593.157,-15732.544,-1223.356,-17204.740,-9046.936,-6722.913,0
14772.606,-17204.340,-15067.534,-11593.157,-15728.811,-1223.982,-17201.410,-9047.919,-6724.098,0
14772.606,-17209.391,-15072.742,-11598.834,-15736.679,-1226.127,-17207.312,-9049.461,-6724.724,0
14772.606,-17214.510,-15077.861,-11604.847,-15745.239,-1228.005,-17213.660,-9049.171,-6723.360,0
14772.606,-17214.867,-15075.269,-11603.215,-15744.412,-1227.647,-17211.201,-9048.188,-6720.655,0
14772.606,-17210.799,-15067.222,-11596.241,-15733.616,-1226.194,-17202.305,-9047.227,-6719.091,0
14772.606,-17209.525,-15064.986,-11594.207,-15730.711,-1226.798,-17200.137,-9046.623,-6720.924,0
14772.607,-17210.486,-15066.060,-11597.181,-15736.790,-1226.328,-17204.070,-9043.314,-6718.510,0
14772.607,-17210.775,-15068.071,-11599.013,-15743.205,-1225.524,-17207.535,-9035.737,-6712.162,0
14772.607,-17209.391,-15065.277,-11597.202,-15742.490,-1225.658,-17205.992,-9031.133,-6707.736,0
14772.607,-17203.779,-15058.639,-11589.021,-15731.873,-1224.004,-17197.969,-9030.217,-6705.926,0
14772.607,-17200.338,-15058.594,-11585.513,-15726.441,-1223.333,-17192.984,-9035.469,-6707.915,0
14772.607,-17205.344,-15062.930,-11590.318,-15735.137,-1224.987,-17198.104,-9038.285,-6708.943,0
14772.607,-17209.658,-15067.109,-11594.207,-15743.474,-1225.077,-17203.377,-9033.949,-6705.322,0
14772.666,-17209.547,-15067.400,-11592.889,-15742.490,-1225.457,-17203.088,-9032.496,-6702.998,0
14772.666,-17205.791,-15063.108,-11586.519,-15731.426,-1224.071,-17194.729,-9026.060,-6702.439,0
14772.666,-17205.725,-15062.863,-11587.233,-15726.732,-1223.691,-17191.129,-9029.322,-6704.719,0
14772.666,-17210.486,-15066.953,-11594.654,-15734.689,-1225.300,-17196.471,-9036.028,-6707.781,0
14772.666,-17212.006,-15066.283,-11598.678,-15741.462,-1224.339,-17201.322,-9042.331,-6709.748,0
14772.666,-17213.436,-15067.267,-11598.230,-15741.372,-1224.786,-17202.932,-9037.950,-6710.798,0
14772.666,-17209.078,-15061.768,-11591.101,-15730.711,-1223.847,-17195.777,-9032.541,-6708.071,0
14772.666,-17205.502,-15058.035,-11589.021,-15725.257,-1223.512,-17192.090,-9037.101,-6708.965,0
14772.666,-17206.887,-15059.846,-11593.939,-15731.806,-1223.557,-17196.672,-9040.588,-6711.357,0
14772.666,-17210.820,-15061.478,-11600.242,-15739.719,-1224.920,-17202.283,-9045.416,-6709.591,0
14772.666,-17213.102,-15064.450,-11601.562,-15740.657,-1227.200,-17204.785,-9045.505,-6709.569,0
14772.666,-17211.670,-15062.930,-11597.202,-15732.364,-1227.066,-17199.914,-9033.368,-6709.815,0
14772.667,-17206.172,-15058.080,-11592.106,-15727.090,-1226.708,-17196.225,-9039.761,-6714.375,0
14772.667,-17208.430,-15064.718,-11595.683,-15733.013,-1225.591,-17199.242,-9041.750,-6711.357,0
14772.667,-17213.459,-15072.116,-11600.600,-15741.149,-1227.111,-17206.641,-9044.365,-6713.682,0
14772.726,-17214.486,-15072.496,-11601.605,-15741.372,-1228.407,-17209.525,-9046.847,-6716.029,0
14772.726,-17208.406,-15066.686,-11594.744,-15730.196,-1225.837,-17201.143,-9046.153,-6713.816,0
14772.726,-17203.557,-15061.433,-11591.279,-15725.167,-1225.703,-17197.119,-9049.059,-6716.364,0
14772.726,-17204.740,-15063.556,-11595.124,-15732.856,-1228.407,-17204.295,-9051.406,-6719.046,0
14772.726,-17206.574,-15066.663,-11598.142,-15740.881,-1229.078,-17210.598,-9042.778,-6714.598,0
14772.726,-17205.232,-15067.244,-11596.331,-15740.345,-1231.000,-17210.396,-9042.801,-6714.419,0
14772.726,-17198.014,-15059.421,-11588.485,-15728.855,-1229.636,-17200.986,-9041.951,-6714.621,0
14772.726,-17192.783,-15052.715,-11585.893,-15722.843,-1229.949,-17196.293,-9051.786,-6716.744,0
14772.727,-17195.555,-15056.694,-11588.731,-15729.168,-1230.016,-17200.047,-9048.567,-6715.313,0
14772.727,-17201.031,-15064.114,-11594.789,-15737.953,-1230.955,-17207.691,-9045.885,-6715.470,0
14772.727,-17200.338,-15064.494,-11593.984,-15736.790,-1232.118,-17208.809,-9046.042,-6713.928,0
14772.727,-17195.131,-15060.226,-11587.927,-15726.039,-1231.760,-17204.070,-9043.918,-6714.263,0
14772.727,-17190.949,-15055.531,-11585.624,-15719.960,-1231.469,-17201.344,-9049.976,-6719.024,0
14772.727,-17196.180,-15060.762,-11591.995,-15727.716,-1233.727,-17207.625,-9050.981,-6720.968,0
14772.727,-17199.131,-15063.980,-11596.510,-15734.778,-1233.839,-17214.330,-9051.540,-6721.862,0
14772.786,-17197.566,-15061.768,-11596.845,-15735.226,-1236.476,-17215.828,-9056.614,-6725.729,0
14772.786,-17192.895,-15057.163,-11589.179,-15725.167,-1235.850,-17209.703,-9058.559,-6727.942,0
14772.786,-17191.576,-15055.822,-11585.624,-15720.026,-1235.448,-17207.916,-9060.548,-6730.781,0
14772.787,-17196.137,-15062.483,-11590.676,-15727.022,-1237.258,-17213.436,-9059.431,-6730.356,0
14772.787,-17198.260,-15067.848,-11593.761,-15733.281,-1236.923,-17219.314,-9054.938,-6727.629,0
14772.787,-17196.359,-15066.686,-11593.224,-15733.840,-1238.443,-17219.963,-9056.904,-6725.059,0
14772.787,-17189.654,-15055.151,-11587.949,-15723.938,-1237.415,-17209.637,-9060.480,-6724.075,0
14772.787,-17187.352,-15049.072,-11585.155,-15718.238,-1234.129,-17204.070,-9057.799,-6724.455,0
14772.787,-17193.609,-15054.950,-11590.944,-15725.324,-1232.609,-17208.764,-9053.127,-6724.031,0
14772.787,-17199.600,-15061.611,-11597.516,-15735.069,-1233.123,-17215.045,-9055.071,-6722.220,0
14772.787,-17201.590,-15063.824,-11597.561,-15736.143,-1235.001,-17217.080,-9058.715,-6727.271,0
14772.787,-17198.191,-15059.107,-11592.710,-15726.575,-1234.867,-17209.971,-9063.051,-6729.708,0
14772.787,-17197.209,-15055.151,-11591.324,-15722.553,-1234.733,-17206.418,-9063.677,-6731.206,0
14772.787,-17201.277,-15058.035,-11595.280,-15728.766,-1233.079,-17209.055,-9057.284,-6728.680,0
14772.788,-17203.623,-15062.371,-11597.270,-15736.880,-1234.844,-17215.023,-9053.932,-6725.215,0
14772.846,-17202.596,-15063.310,-11595.571,-15737.773,-1238.510,-17216.119,-9054.200,-6724.098,0
14772.846,-17197.387,-15057.342,-11588.307,-15727.380,-1237.460,-17208.898,-9054.155,-6725.349,0
14772.847,-17197.029,-15054.839,-11586.898,-15723.111,-1237.326,-17205.277,-9056.547,-6728.188,0
14772.847,-17204.295,-15060.181,-11593.313,-15732.789,-1239.985,-17211.201,-9058.469,-6728.076,0
14772.847,-17206.842,-15064.853,-11595.191,-15741.149,-1239.427,-17217.459,-9059.632,-6726.311,0
14772.847,-17202.953,-15064.428,-11592.755,-15740.680,-1239.270,-17217.236,-9058.446,-6723.986,0
14772.847,-17195.174,-15055.890,-11585.580,-15729.168,-1236.968,-17207.646,-9059.296,-6722.801,0
14772.847,-17192.201,-15049.563,-11584.932,-15724.005,-1235.180,-17201.389,-9062.560,-6724.791,0
14772.847,-17194.369,-15052.201,-11590.072,-15729.728,-1234.353,-17203.623,-9058.179,-6723.673,0
14772.847,-17198.773,-15057.789,-11595.772,-15738.243,-1235.984,-17210.418,-9059.452,-6723.002,0
14772.847,-17199.488,-15060.829,-11595.571,-15739.450,-1235.850,-17210.217,-9056.815,-6720.901,0
14772.847,-17195.689,-15059.063,-11589.312,-15730.733,-1234.531,-17202.104,-9055.049,-6720.544,0
14772.847,-17194.146,-15054.123,-11588.731,-15726.374,-1233.280,-17197.969,-9057.620,-6724.433,0
14772.847,-17198.191,-15058.191,-11593.648,-15733.191,-1232.498,-17202.842,-9058.179,-6727.383,0
14772.847,-17200.293,-15060.918,-11599.482,-15741.417,-1234.375,-17209.189,-9062.828,-6728.479,0
14772.907,-17199.533,-15060.382,-11599.371,-15742.490,-1236.677,-17210.553,-9064.280,-6729.395,0
14772.907,-17194.459,-15054.660,-11592.129,-15731.337,-1233.012,-17201.031,-9059.854,-6726.444,0
14772.907,-17192.939,-15049.787,-11592.240,-15728.543,-1232.609,-17196.338,-9062.157,-6726.064,0
14772.907,-17195.332,-15050.793,-11597.940,-15736.857,-1233.615,-17199.623,-9066.628,-6729.082,0
14772.907,-17201.098,-15059.912,-11602.321,-15746.066,-1232.922,-17204.607,-9067.745,-6728.300,0
14772.907,-17202.371,-15064.539,-11602.925,-15746.849,-1231.939,-17205.568,-9069.153,-6730.244,0
14772.907,-17195.174,-15060.314,-11595.906,-15735.874,-1230.195,-17199.756,-9069.488,-6733.664,0
14772.907,-17192.090,-15057.633,-11593.381,-15730.867,-1229.726,-17197.387,-9071.813,-6736.078,0
14772.907,-17196.225,-15062.147,-11597.136,-15736.969,-1230.598,-17202.773,-9072.596,-6738.045,0
14772.907,-17198.348,-15064.562,-11600.578,-15744.814,-1231.671,-17210.240,-9071.679,-6739.409,0
14772.907,-17195.867,-15063.757,-11597.694,-15744.726,-1231.604,-17211.826,-9070.315,-6740.035,0
14772.907,-17191.553,-15060.784,-11591.392,-15735.807,-1231.268,-17206.395,-9069.757,-6739.230,0
14772.908,-17189.787,-15061.634,-11588.307,-15730.397,-1231.827,-17203.445,-9071.478,-6739.610,0
14772.908,-17192.090,-15066.216,-11590.766,-15737.036,-1232.609,-17208.451,-9069.310,-6738.291,0
14772.908,-17198.125,-15071.155,-11595.816,-15745.508,-1234.174,-17216.207,-9067.030,-6736.324,0
14772.967,-17199.311,-15073.927,-11596.062,-15745.888,-1236.476,-17219.939,-9067.566,-6736.547,0
14772.967,-17193.789,-15068.294,-11588.463,-15734.936,-1237.080,-17216.051,-9066.918,-6736.011,0
14772.967,-17192.225,-15069.792,-11583.725,-15729.504,-1237.102,-17214.018,-9068.259,-6737.397,0
14772.967,-17194.527,-15073.167,-11586.295,-15735.829,-1236.297,-17217.771,-9070.092,-6737.688,0
14772.967,-17197.387,-15074.910,-11589.245,-15743.652,-1235.135,-17220.141,-9062.761,-6732.368,0
14772.967,-17197.186,-15073.726,-11588.955,-15744.055,-1235.672,-17218.732,-9059.653,-6729.417,0
14772.967,-17195.197,-15070.843,-11584.663,-15736.276,-1236.521,-17213.234,-9059.185,-6728.657,0
14772.968,-17193.678,-15068.093,-11580.998,-15730.599,-1234.196,-17206.529,-9055.652,-6726.199,0
14772.968,-17198.146,-15073.323,-11585.334,-15736.768,-1234.420,-17209.324,-9055.161,-6723.472,0
14772.968,-17204.049,-15079.962,-11590.475,-15744.993,-1235.560,-17215.000,-9055.720,-6719.314,0
14772.968,-17205.502,-15081.951,-11589.692,-15745.865,-1235.426,-17215.180,-9053.396,-6717.504,0
14772.968,-17202.572,-15076.028,-11584.819,-15736.790,-1235.493,-17210.330,-9054.267,-6720.186,0
14772.968,-17199.645,-15071.603,-11581.758,-15729.861,-1234.464,-17205.680,-9055.876,-6722.063,0
14772.968,-17204.049,-15076.185,-11587.837,-15737.036,-1235.672,-17210.977,-9059.028,-6725.417,0
14772.968,-17205.188,-15079.627,-11591.168,-15744.278,-1236.297,-17215.314,-9059.564,-6728.836,0
14773.026,-17204.070,-15079.582,-11590.653,-15743.607,-1234.800,-17212.943,-9059.899,-6728.099,0
14773.027,-17202.773,-15076.721,-11586.787,-15734.891,-1234.241,-17207.223,-9062.336,-6730.177,0
14773.027,-17202.037,-15075.045,-11584.730,-15729.794,-1233.861,-17204.719,-9062.336,-6732.614,0
14773.027,-17202.506,-15076.989,-11588.799,-15734.220,-1233.749,-17207.199,-9064.214,-6730.468,0
14773.027,-17203.736,-15081.281,-11593.201,-15741.774,-1234.084,-17212.297,-9065.019,-6728.210,0
14773.027,-17206.061,-15084.008,-11596.599,-15745.597,-1236.610,-17215.582,-9064.683,-6730.378,0
14773.027,-17204.271,-15080.432,-11592.486,-15737.170,-1237.258,-17211.693,-9065.979,-6733.150,0
14773.027,-17201.500,-15076.878,-11589.290,-15730.354,-1236.946,-17209.480,-9069.779,-6736.525,0
14773.027,-17201.389,-15076.564,-11591.815,-15735.718,-1237.862,-17215.135,-9072.081,-6738.313,0
14773.027,-17203.848,-15079.649,-11594.476,-15744.703,-1238.957,-17222.311,-9069.198,-6735.005,0
14773.027,-17202.686,-15076.899,-11592.889,-15745.553,-1239.985,-17224.523,-9067.700,-6733.039,0
14773.028,-17197.119,-15071.133,-11586.630,-15735.494,-1239.672,-17218.398,-9069.488,-6734.111,0
14773.028,-17193.609,-15070.306,-11583.926,-15728.900,-1239.762,-17214.889,-9074.809,-6738.626,0
14773.028,-17196.002,-15071.312,-11589.737,-15735.002,-1239.784,-17218.957,-9076.238,-6740.996,0
14773.028,-17198.393,-15076.229,-11593.872,-15743.139,-1240.678,-17225.104,-9077.513,-6740.370,0
14773.086,-17199.801,-15081.214,-11594.073,-15744.949,-1242.489,-17227.137,-9076.842,-6739.878,0
14773.086,-17195.287,-15073.078,-11588.754,-15735.807,-1242.310,-17220.768,-9074.294,-6739.431,0
14773.086,-17189.967,-15066.193,-11585.110,-15729.437,-1240.142,-17214.150,-9075.188,-6740.638,0
14773.086,-17191.553,-15070.485,-11588.485,-15734.913,-1238.801,-17215.738,-9076.016,-6738.961,0
14773.086,-17194.996,-15075.782,-11592.956,-15744.301,-1238.935,-17219.359,-9073.847,-6734.581,0
14773.087,-17194.303,-15073.726,-11593.201,-15745.933,-1239.449,-17218.420,-9071.210,-6732.994,0
14773.087,-17188.916,-15069.144,-11586.272,-15735.605,-1239.315,-17210.285,-9070.025,-6730.870,0
14773.087,-17187.084,-15065.009,-11583.993,-15729.929,-1239.561,-17206.418,-9072.931,-6733.083,0
14773.087,-17193.162,-15070.194,-11588.955,-15736.299,-1239.941,-17210.732,-9074.115,-6732.479,0
14773.087,-17199.041,-15075.938,-11594.431,-15743.987,-1240.052,-17216.633,-9073.266,-6731.027,0
14773.087,-17199.422,-15078.420,-11594.811,-15745.150,-1240.410,-17217.281,-9073.042,-6731.608,0
14773.087,-17194.102,-15074.039,-11588.799,-15734.556,-1239.985,-17209.971,-9073.444,-6731.943,0
14773.087,-17195.107,-15075.380,-11590.095,-15729.906,-1242.176,-17208.652,-9081.491,-6737.777,0
14773.087,-17200.674,-15084.276,-11594.900,-15735.963,-1242.466,-17214.309,-9082.967,-6741.018,0
14773.087,-17206.082,-15089.462,-11597.561,-15743.987,-1241.997,-17221.059,-9078.988,-6741.979,0
14773.146,-17209.547,-15091.786,-11598.768,-15747.005,-1242.243,-17223.719,-9077.445,-6740.079,0
14773.146,-17204.518,-15084.164,-11591.995,-15737.014,-1240.075,-17215.402,-9075.568,-6735.296,0
14773.146,-17199.467,-15078.018,-11585.222,-15728.476,-1237.795,-17208.877,-9072.908,-6734.335,0
14773.146,-17201.812,-15078.867,-11587.301,-15732.946,-1238.153,-17213.592,-9071.947,-6732.971,0
14773.147,-17204.115,-15081.772,-11590.452,-15741.439,-1239.896,-17221.750,-9075.121,-6735.452,0
14773.147,-17202.529,-15081.639,-11589.201,-15743.026,-1239.404,-17221.305,-9069.689,-6731.407,0
14773.147,-17196.650,-15075.692,-11581.534,-15732.588,-1236.834,-17213.906,-9063.588,-6728.702,0
14773.147,-17193.252,-15071.089,-11578.829,-15726.665,-1237.661,-17211.111,-9068.818,-6732.658,0
14773.147,-17195.062,-15072.653,-11582.562,-15731.873,-1238.421,-17213.324,-9068.237,-6731.228,0
14773.147,-17197.344,-15076.542,-11585.379,-15740.031,-1239.315,-17218.219,-9063.208,-6727.897,0
14773.147,-17198.908,-15077.146,-11585.513,-15742.691,-1240.455,-17219.203,-9061.196,-6728.300,0
14773.147,-17193.900,-15070.664,-11579.098,-15734.019,-1239.024,-17210.531,-9059.743,-6726.400,0
14773.147,-17189.967,-15061.901,-11575.834,-15727.000,-1237.862,-17204.607,-9059.006,-6725.685,0
14773.147,-17194.102,-15066.171,-11580.818,-15732.186,-1239.114,-17208.451,-9061.106,-6723.941,0
14773.147,-17196.404,-15071.580,-11584.909,-15738.467,-1237.974,-17212.922,-9062.202,-6721.930,0
14773.207,-17198.236,-15074.263,-11586.943,-15740.456,-1239.516,-17214.777,-9065.912,-6723.762,0
14773.207,-17193.834,-15070.016,-11580.908,-15731.694,-1241.058,-17209.301,-9065.778,-6723.650,0
14773.207,-17189.318,-15069.233,-11576.952,-15724.341,-1241.997,-17206.238,-9069.354,-6727.696,0
14773.207,-17186.391,-15068.115,-11576.751,-15727.515,-1240.432,-17209.703,-9071.656,-6728.702,0
14773.207,-17187.910,-15069.390,-11580.126,-15736.209,-1240.589,-17217.191,-9071.590,-6729.529,0
14773.207,-17187.955,-15071.268,-11579.478,-15737.662,-1240.835,-17218.332,-9069.020,-6728.926,0
14773.207,-17183.307,-15069.367,-11573.487,-15728.677,-1240.634,-17213.727,-9066.538,-6729.641,0
14773.207,-17181.473,-15067.244,-11569.979,-15721.814,-1239.896,-17210.664,-9069.041,-6730.938,0
14773.207,-17185.049,-15070.016,-11572.549,-15726.799,-1238.309,-17214.979,-9069.332,-6731.943,0
14773.207,-17190.057,-15076.855,-11578.338,-15736.790,-1239.896,-17223.359,-9070.695,-6733.888,0
14773.207,-17191.441,-15079.426,-11579.410,-15739.138,-1241.438,-17227.830,-9071.434,-6735.765,0
14773.208,-17187.285,-15075.491,-11572.638,-15729.190,-1240.343,-17222.287,-9070.852,-6735.788,0
14773.208,-17184.289,-15076.899,-11566.871,-15721.591,-1238.085,-17217.549,-9069.712,-6734.782,0
14773.208,-17186.637,-15079.984,-11569.844,-15727.716,-1239.114,-17223.629,-9067.812,-6734.536,0
14773.208,-17191.330,-15085.394,-11575.008,-15737.506,-1239.650,-17230.469,-9063.767,-6732.882,0
14773.267,-17191.195,-15085.863,-11574.023,-15737.997,-1237.951,-17228.635,-9059.587,-6727.741,0
14773.267,-17185.094,-15081.214,-11568.033,-15727.962,-1237.348,-17219.828,-9062.180,-6727.473,0
14773.267,-17183.395,-15078.867,-11564.814,-15721.814,-1237.974,-17213.637,-9061.375,-6728.456,0
14773.267,-17188.760,-15082.242,-11567.497,-15727.716,-1237.929,-17215.582,-9059.564,-6725.841,0
14773.267,-17193.723,-15087.159,-11571.409,-15736.478,-1237.862,-17220.186,-9057.485,-6720.544,0
14773.267,-17196.180,-15091.630,-11571.609,-15738.512,-1236.789,-17219.314,-9053.574,-6719.091,0
14773.267,-17193.006,-15086.958,-11567.609,-15730.733,-1236.879,-17212.475,-9054.312,-6721.706,0
14773.268,-17189.297,-15084.790,-11564.703,-15724.162,-1234.286,-17204.674,-9055.071,-6718.845,0
14773.268,-17195.107,-15086.646,-11570.022,-15730.979,-1234.196,-17207.758,-9056.301,-6715.693,0
14773.268,-17200.359,-15089.573,-11576.505,-15740.567,-1235.381,-17214.084,-9058.849,-6716.342,0
14773.268,-17200.830,-15095.072,-11577.377,-15741.976,-1236.119,-17215.672,-9058.647,-6717.168,0
14773.268,-17196.068,-15094.647,-11570.648,-15731.783,-1234.196,-17209.279,-9056.838,-6719.203,0
14773.268,-17193.096,-15088.791,-11566.871,-15724.385,-1233.526,-17204.719,-9059.632,-6721.036,0
14773.268,-17197.990,-15097.933,-11572.213,-15730.845,-1235.336,-17211.268,-9066.247,-6724.120,0
14773.268,-17202.818,-15109.712,-11577.399,-15739.920,-1237.862,-17220.387,-9067.477,-6725.193,0
14773.327,-17201.365,-15105.175,-11575.409,-15740.232,-1237.817,-17221.482,-9061.084,-6725.148,0
14773.327,-17194.885,-15090.758,-11569.576,-15731.403,-1238.823,-17216.924,-9065.465,-6729.038,0
14773.327,-17189.945,-15081.438,-11565.061,-15723.692,-1238.644,-17213.102,-9068.572,-6731.541,0
14773.328,-17191.979,-15090.690,-11565.128,-15726.374,-1235.359,-17215.471,-9063.096,-6730.312,0
14773.328,-17196.783,-15101.710,-11569.755,-15735.539,-1235.604,-17222.086,-9060.659,-6729.015,0
14773.328,-17196.896,-15101.822,-11571.588,-15738.847,-1237.460,-17223.629,-9060.973,-6726.624,0
14773.328,-17192.314,-15096.972,-11565.284,-15729.816,-1236.342,-17217.326,-9061.844,-6725.349,0
14773.328,-17188.357,-15090.803,-11560.255,-15722.105,-1236.476,-17211.021,-9064.348,-6725.729,0
14773.328,-17191.777,-15092.435,-11564.346,-15727.380,-1237.638,-17216.275,-9063.230,-6728.926,0
14773.328,-17198.572,-15100.973,-11570.939,-15738.132,-1239.136,-17223.695,-9062.984,-6729.373,0
14773.328,-17199.311,-15104.169,-11570.962,-15739.785,-1238.868,-17223.719,-9060.727,-6725.550,0
14773.328,-17193.564,-15099.185,-11566.066,-15730.621,-1238.041,-17218.934,-9062.426,-6726.512,0
14773.328,-17188.850,-15096.391,-11563.765,-15724.229,-1238.622,-17215.850,-9065.711,-6729.484,0
14773.328,-17189.184,-15097.754,-11566.604,-15727.872,-1238.622,-17218.600,-9068.729,-6731.898,0
14773.328,-17191.822,-15099.721,-11570.313,-15735.404,-1239.248,-17224.857,-9068.482,-6732.167,0
14773.388,-17191.711,-15108.326,-11571.297,-15738.467,-1239.740,-17227.182,-9066.940,-6730.714,0
14773.388,-17187.105,-15098.671,-11566.156,-15730.957,-1239.829,-17222.467,-9067.678,-6731.652,0
14773.388,-17180.713,-15084.835,-11560.300,-15722.418,-1239.002,-17218.264,-9067.991,-6733.642,0
14773.388,-17183.484,-15086.221,-11563.519,-15726.889,-1239.628,-17222.086,-9069.176,-6736.749,0
14773.388,-17188.961,-15101.442,-11568.928,-15735.740,-1240.835,-17228.322,-9070.069,-6736.078,0
14773.388,-17190.057,-15110.517,-11568.503,-15736.478,-1241.774,-17230.088,-9069.757,-6735.676,0
14773.388,-17182.949,-15099.028,-11563.071,-15727.537,-1242.958,-17226.467,-9071.724,-6738.895,0
14773.388,-17179.551,-15093.775,-11560.345,-15721.457,-1243.427,-17221.506,-9075.948,-6742.113,0
14773.388,-17183.887,-15099.877,-11561.954,-15725.503,-1242.243,-17222.332,-9073.892,-6739.118,0
14773.388,-17189.318,-15103.610,-11566.894,-15734.667,-1242.958,-17229.262,-9071.210,-6736.682,0
14773.388,-17190.883,-15101.956,-11568.012,-15736.566,-1243.517,-17230.111,-9073.064,-6735.072,0
14773.388,-17188.312,-15103.230,-11561.462,-15728.252,-1242.668,-17223.002,-9066.068,-6732.479,0
14773.389,-17185.541,-15103.029,-11558.064,-15720.720,-1242.131,-17218.600,-9066.046,-6735.072,0
14773.389,-17189.811,-15098.447,-11565.038,-15726.486,-1243.472,-17224.344,-9074.115,-6740.258,0
14773.389,-17195.822,-15098.559,-11571.588,-15735.896,-1244.255,-17231.072,-9072.886,-6738.783,0
14773.447,-17197.678,-15101.732,-11571.722,-15737.617,-1242.511,-17231.205,-9067.410,-6733.620,0
14773.447,-17194.885,-15103.990,-11565.865,-15728.408,-1241.975,-17223.561,-9067.365,-6734.111,0
14773.447,-17194.057,-15109.936,-11563.071,-15722.485,-1241.103,-17216.633,-9068.661,-6734.223,0
14773.447,-17197.186,-15108.684,-11567.207,-15728.543,-1242.511,-17221.707,-9070.315,-6736.167,0
14773.447,-17199.713,-15115.435,-11570.403,-15735.226,-1241.930,-17227.383,-9066.739,-6729.932,0
14773.447,-17200.830,-15111.344,-11572.437,-15737.595,-1243.919,-17230.557,-9066.628,-6730.200,0
14773.447,-17194.951,-15101.822,-11567.497,-15729.526,-1245.663,-17225.127,-9067.253,-6732.234,0
14773.447,-17189.006,-15097.128,-11561.597,-15721.524,-1244.322,-17219.494,-9069.242,-6732.726,0
14773.448,-17188.625,-15095.787,-11563.496,-15724.631,-1243.696,-17223.404,-9073.735,-6735.005,0
14773.448,-17191.195,-15098.447,-11569.263,-15734.556,-1245.596,-17230.670,-9076.060,-6735.564,0
14773.448,-17189.520,-15097.844,-11568.838,-15736.231,-1245.752,-17229.932,-9069.824,-6731.809,0
14773.448,-17184.557,-15091.987,-11563.943,-15727.671,-1244.903,-17224.053,-9068.550,-6734.245,0
14773.448,-17181.764,-15088.210,-11561.753,-15720.384,-1244.478,-17219.537,-9074.942,-6738.716,0
14773.448,-17182.635,-15091.228,-11562.356,-15723.245,-1243.562,-17222.512,-9075.792,-6737.866,0
14773.448,-17187.643,-15098.491,-11565.575,-15731.896,-1243.562,-17229.418,-9068.796,-6737.509,0
14773.507,-17189.207,-15104.393,-11565.731,-15734.131,-1243.718,-17231.787,-9064.459,-6737.308,0
14773.507,-17186.949,-15099.698,-11563.317,-15727.761,-1245.976,-17227.539,-9072.015,-6740.236,0
14773.507,-17180.914,-15090.222,-11558.020,-15717.747,-1243.249,-17218.621,-9075.300,-6741.890,0
14773.507,-17184.133,-15094.781,-11562.244,-15722.798,-1243.316,-17220.611,-9074.607,-6740.929,0
14773.507,-17187.418,-15093.552,-11564.949,-15730.822,-1242.802,-17226.199,-9071.836,-6738.291,0
14773.507,-17189.141,-15092.367,-11565.888,-15734.778,-1243.696,-17229.551,-9068.371,-6737.956,0
14773.507,-17186.525,-15085.617,-11562.691,-15728.565,-1244.568,-17225.037,-9067.119,-6736.972,0
14773.507,-17182.232,-15080.275,-11558.020,-15719.558,-1243.606,-17219.023,-9069.131,-6736.503,0
14773.507,-17185.586,-15089.729,-11561.306,-15722.463,-1243.249,-17222.512,-9072.037,-6738.939,0
14773.507,-17189.207,-15097.575,-11566.559,-15730.152,-1244.411,-17228.904,-9075.568,-6740.437,0
14773.507,-17188.805,-15098.470,-11565.619,-15731.694,-1243.025,-17228.791,-9071.031,-6735.072,0
14773.508,-17188.223,-15096.391,-11562.312,-15726.218,-1244.813,-17225.148,-9071.143,-6735.899,0
14773.508,-17186.279,-15094.871,-11558.109,-15718.618,-1244.366,-17219.225,-9075.188,-6737.844,0
14773.508,-17189.207,-15104.504,-11561.686,-15722.307,-1244.433,-17221.996,-9079.972,-6738.626,0
14773.508,-17193.855,-15107.812,-11567.631,-15731.717,-1246.266,-17229.463,-9078.474,-6739.476,0
14773.567,-17194.348,-15101.755,-11568.012,-15733.550,-1246.691,-17231.072,-9074.294,-6739.364,0
14773.567,-17191.018,-15098.938,-11563.898,-15727.269,-1247.943,-17227.875,-9075.099,-6741.935,0
14773.567,-17185.496,-15094.379,-11558.199,-15717.680,-1245.998,-17221.371,-9077.826,-6742.985,0
14773.567,-17190.369,-15098.872,-11565.955,-15724.117,-1249.194,-17225.887,-9083.659,-6745.511,0
14773.567,-17194.729,-15105.510,-11571.208,-15733.639,-1248.881,-17230.178,-9082.229,-6739.252,0
14773.567,-17193.990,-15107.008,-11570.112,-15735.650,-1246.266,-17228.211,-9073.557,-6732.167,0
14773.567,-17188.939,-15103.387,-11563.496,-15726.732,-1244.523,-17221.482,-9070.584,-6732.122,0
14773.567,-17185.385,-15097.955,-11560.166,-15718.283,-1243.539,-17216.029,-9070.896,-6736.302,0
14773.567,-17188.201,-15100.190,-11562.915,-15722.440,-1242.042,-17218.891,-9070.874,-6736.883,0
14773.568,-17195.777,-15107.298,-11567.341,-15732.700,-1242.064,-17225.170,-9069.063,-6733.709,0
14773.568,-17196.807,-15108.907,-11566.446,-15734.823,-1240.343,-17223.719,-9067.856,-6727.584,0
14773.568,-17194.750,-15105.421,-11562.669,-15728.051,-1241.349,-17217.303,-9069.601,-6728.367,0
14773.568,-17191.441,-15099.632,-11559.518,-15720.630,-1241.103,-17212.051,-9070.069,-6729.350,0
14773.568,-17194.281,-15099.989,-11562.848,-15724.766,-1240.455,-17215.402,-9069.645,-6732.100,0
14773.568,-17199.578,-15108.147,-11567.854,-15733.907,-1239.449,-17222.824,-9068.595,-6731.429,0
14773.627,-17199.713,-15114.026,-11568.123,-15736.724,-1240.544,-17225.395,-9063.141,-6726.914,0
14773.627,-17197.633,-15112.641,-11563.385,-15729.660,-1243.182,-17220.477,-9061.040,-6726.132,0
14773.627,-17193.990,-15106.248,-11559.965,-15722.574,-1243.673,-17215.672,-9062.872,-6728.233,0
14773.627,-17194.594,-15104.280,-11562.200,-15726.151,-1244.903,-17219.852,-9063.900,-6728.993,0
14773.628,-17200.539,-15110.785,-11568.436,-15735.941,-1247.496,-17227.875,-9063.141,-6729.149,0
14773.628,-17201.701,-15111.545,-11571.186,-15739.182,-1250.066,-17230.355,-9064.169,-6728.970,0
14773.628,-17194.660,-15103.900,-11566.536,-15729.705,-1248.747,-17222.713,-9064.169,-6726.355,0
14773.628,-17187.977,-15097.508,-11563.876,-15721.368,-1249.194,-17215.918,-9065.532,-6726.937,0
14773.628,-17187.307,-15097.731,-11567.497,-15724.944,-1251.139,-17220.141,-9070.874,-6731.943,0
14773.628,-17192.225,-15103.387,-11573.442,-15733.326,-1252.569,-17227.740,-9073.222,-6732.323,0
14773.628,-17195.398,-15110.830,-11575.834,-15737.237,-1252.614,-17229.619,-9074.361,-6732.435,0
14773.628,-17193.207,-15105.063,-11573.085,-15730.800,-1253.620,-17227.025,-9071.612,-6736.793,0
14773.628,-17185.139,-15092.166,-11568.168,-15720.362,-1252.234,-17221.170,-9077.804,-6743.164,0
14773.628,-17185.676,-15093.887,-11570.291,-15723.826,-1251.586,-17223.762,-9083.414,-6748.193,0
14773.628,-17190.102,-15099.743,-11573.577,-15732.477,-1252.391,-17231.318,-9083.123,-6752.261,0
14773.687,-17193.633,-15104.840,-11576.572,-15737.685,-1253.844,-17234.021,-9080.731,-6752.395,0
14773.688,-17190.369,-15100.928,-11572.481,-15729.929,-1252.525,-17226.422,-9080.530,-6747.232,0
14773.688,-17186.010,-15096.949,-11569.062,-15721.681,-1250.535,-17219.047,-9084.665,-6750.316,0
14773.688,-17190.146,-15101.420,-11572.884,-15725.950,-1249.016,-17220.387,-9083.682,-6750.942,0
14773.688,-17201.053,-15106.672,-11581.087,-15736.812,-1250.446,-17226.578,-9081.604,-6743.454,0
14773.688,-17204.854,-15106.002,-11582.138,-15740.858,-1250.334,-17226.848,-9080.307,-6737.754,0
14773.688,-17201.635,-15102.917,-11576.505,-15734.086,-1249.172,-17220.945,-9074.271,-6734.089,0
14773.688,-17197.387,-15100.324,-11572.034,-15726.218,-1248.099,-17214.330,-9072.126,-6731.943,0
14773.688,-17198.014,-15101.420,-11572.012,-15728.632,-1246.937,-17216.945,-9068.281,-6729.529,0
14773.688,-17202.998,-15107.231,-11575.655,-15737.640,-1248.546,-17224.344,-9068.438,-6732.949,0
14773.688,-17203.154,-15111.120,-11574.091,-15741.730,-1248.524,-17226.221,-9062.157,-6727.964,0
14773.688,-17195.488,-15101.308,-11566.983,-15734.086,-1247.451,-17218.465,-9056.859,-6722.287,0
14773.688,-17189.318,-15091.361,-11560.858,-15722.530,-1245.082,-17209.436,-9058.469,-6722.086,0
14773.689,-17192.873,-15093.686,-11564.479,-15724.944,-1246.490,-17213.078,-9065.220,-6729.752,0
14773.689,-17199.689,-15101.062,-11569.956,-15734.891,-1247.697,-17220.477,-9062.090,-6725.550,0
14773.748,-17203.824,-15105.107,-11572.370,-15739.741,-1246.534,-17219.449,-9057.508,-6713.950,0
14773.748,-17203.668,-15104.460,-11568.234,-15732.298,-1242.735,-17209.033,-9055.430,-6709.368,0
14773.748,-17205.121,-15106.002,-11565.485,-15724.944,-1241.796,-17203.445,-9056.323,-6711.871,0
14773.748,-17210.889,-15110.964,-11571.118,-15730.085,-1241.952,-17207.871,-9059.721,-6715.648,0
14773.748,-17219.381,-15119.413,-11578.024,-15739.897,-1241.438,-17214.510,-9062.180,-6716.073,0
14773.748,-17223.605,-15124.688,-11580.081,-15743.406,-1243.025,-17220.029,-9066.807,-6722.354,0
14773.748,-17220.768,-15122.542,-11576.930,-15735.784,-1242.601,-17216.141,-9072.104,-6727.294,0
14773.748,-17219.270,-15116.843,-11573.666,-15728.006,-1241.952,-17210.799,-9068.349,-6732.256,0
14773.748,-17223.271,-15112.060,-11577.891,-15731.270,-1239.650,-17209.480,-9059.251,-6727.026,0
14773.749,-17228.301,-15114.004,-11585.379,-15741.328,-1241.349,-17216.633,-9060.437,-6725.104,0
14773.749,-17226.176,-15111.701,-11587.524,-15743.094,-1241.997,-17220.812,-9061.196,-6726.556,0
14773.749,-17221.146,-15103.767,-11582.808,-15733.639,-1240.164,-17211.045,-9060.860,-6724.276,0
14773.749,-17216.879,-15098.715,-11579.143,-15724.967,-1241.483,-17206.082,-9068.349,-6728.344,0
14773.749,-17221.482,-15103.319,-11582.473,-15728.565,-1241.461,-17207.893,-9069.936,-6730.445,0
14773.749,-17226.400,-15107.343,-11587.972,-15737.796,-1240.008,-17212.654,-9061.219,-6722.533,0
14773.808,-17227.182,-15109.108,-11585.289,-15742.848,-1240.276,-17216.967,-9058.514,-6718.420,0
14773.808,-17224.031,-15105.733,-11582.316,-15736.455,-1238.890,-17207.400,-9057.687,-6718.465,0
14773.808,-17219.561,-15095.653,-11578.650,-15726.866,-1238.465,-17201.947,-9057.195,-6717.325,0
14773.808,-17221.371,-15097.352,-11582.361,-15730.286,-1238.979,-17205.188,-9055.943,-6716.476,0
14773.808,-17225.908,-15104.661,-11589.156,-15739.830,-1241.081,-17213.234,-9055.854,-6715.515,0
14773.808,-17227.182,-15104.236,-11593.224,-15743.697,-1241.125,-17215.516,-9053.373,-6713.167,0
14773.809,-17221.461,-15096.122,-11590.520,-15735.605,-1238.667,-17208.094,-9049.238,-6710.530,0
14773.809,-17217.885,-15091.138,-11586.340,-15726.486,-1236.856,-17201.857,-9050.199,-6711.603,0
14773.809,-17220.744,-15085.394,-11589.737,-15729.906,-1237.348,-17202.908,-9052.881,-6711.312,0
14773.809,-17226.131,-15089.931,-11595.459,-15739.360,-1237.549,-17207.736,-9052.188,-6709.145,0
14773.809,-17232.100,-15095.608,-11598.856,-15744.770,-1238.532,-17209.547,-9051.651,-6708.809,0
14773.809,-17229.484,-15093.775,-11593.515,-15737.863,-1237.907,-17205.100,-9052.010,-6708.652,0
14773.809,-17228.992,-15092.747,-11591.413,-15731.806,-1237.974,-17200.359,-9054.714,-6710.530,0
14773.809,-17229.105,-15086.869,-11595.325,-15733.616,-1236.789,-17201.143,-9058.626,-6713.167,0
14773.809,-17234.447,-15091.429,-11603.014,-15743.519,-1239.762,-17208.721,-9064.013,-6717.638,0
14773.867,-17236.436,-15095.988,-11604.399,-15748.347,-1241.930,-17213.459,-9064.951,-6719.918,0
14773.868,-17228.947,-15088.479,-11597.828,-15740.411,-1241.192,-17207.848,-9062.313,-6717.392,0
14773.868,-17226.578,-15087.629,-11592.956,-15731.851,-1239.941,-17199.311,-9065.532,-6712.184,0
14773.868,-17228.746,-15087.405,-11595.146,-15734.533,-1241.550,-17202.037,-9068.862,-6717.236,0
14773.868,-17231.094,-15087.651,-11599.817,-15742.312,-1242.243,-17208.520,-9066.292,-6716.610,0
14773.868,-17234.045,-15095.094,-11603.707,-15748.569,-1242.958,-17212.117,-9062.336,-6714.688,0
14773.868,-17228.770,-15088.545,-11596.979,-15741.484,-1242.712,-17207.021,-9062.895,-6713.436,0
14773.868,-17223.449,-15080.163,-11591.033,-15732.633,-1241.103,-17199.131,-9062.962,-6713.324,0
14773.868,-17224.188,-15080.968,-11592.486,-15735.829,-1239.874,-17199.488,-9058.134,-6713.146,0
14773.868,-17227.719,-15085.282,-11597.113,-15744.145,-1239.740,-17205.166,-9054.379,-6710.530,0
14773.868,-17224.455,-15082.041,-11594.833,-15745.597,-1238.689,-17205.613,-9049.797,-6704.048,0
14773.868,-17220.656,-15081.169,-11590.743,-15739.897,-1238.488,-17200.428,-9046.086,-6698.639,0
14773.868,-17217.035,-15075.850,-11586.228,-15731.762,-1237.571,-17194.125,-9049.551,-6704.115,0
14773.869,-17216.811,-15074.486,-11588.619,-15733.952,-1234.576,-17193.924,-9049.641,-6700.539,0
14773.869,-17220.543,-15077.437,-11595.571,-15743.720,-1234.800,-17199.020,-9051.160,-6692.090,0
14773.927,-17222.287,-15081.906,-11597.225,-15749.240,-1234.755,-17198.750,-9046.020,-6693.319,0
14773.927,-17216.609,-15079.917,-11591.324,-15740.725,-1233.503,-17194.213,-9045.930,-6694.683,0
14773.927,-17211.336,-15069.903,-11587.368,-15730.822,-1232.453,-17188.916,-9048.746,-6696.806,0
14773.928,-17212.922,-15069.882,-11591.503,-15734.801,-1233.481,-17192.336,-9048.590,-6699.019,0
14773.928,-17216.564,-15074.844,-11595.325,-15743.429,-1233.839,-17198.461,-9047.808,-6697.790,0
14773.928,-17216.789,-15075.470,-11599.661,-15748.167,-1234.420,-17201.992,-9048.143,-6697.142,0
14773.928,-17211.246,-15071.133,-11594.342,-15740.232,-1234.621,-17199.914,-9051.160,-6700.673,0
14773.928,-17206.463,-15061.365,-11591.749,-15731.403,-1236.141,-17196.180,-9057.530,-6708.183,0
14773.928,-17208.273,-15065.522,-11594.767,-15732.990,-1237.884,-17199.846,-9062.872,-6713.637,0
14773.928,-17213.279,-15073.703,-11600.712,-15740.680,-1239.337,-17206.953,-9066.337,-6716.274,0
14773.928,-17216.654,-15078.509,-11602.769,-15745.775,-1238.868,-17210.195,-9065.510,-6714.486,0
14773.928,-17215.381,-15075.111,-11598.388,-15740.523,-1239.181,-17206.105,-9063.878,-6712.609,0
14773.928,-17210.709,-15069.568,-11590.475,-15730.420,-1237.057,-17197.678,-9062.336,-6711.424,0
14773.928,-17211.336,-15069.233,-11592.554,-15731.627,-1236.186,-17196.627,-9058.715,-6707.781,0
14773.928,-17214.441,-15071.155,-11597.583,-15739.853,-1238.041,-17204.139,-9058.312,-6710.888,0
14773.988,-17219.471,-15076.743,-11602.679,-15746.737,-1239.963,-17207.043,-9057.754,-6708.474,0
14773.988,-17217.570,-15074.285,-11597.806,-15741.193,-1238.667,-17199.311,-9052.591,-6701.478,0
14773.988,-17210.934,-15065.925,-11589.021,-15729.683,-1236.096,-17189.543,-9052.367,-6700.472,0
14773.988,-17214.576,-15068.115,-11593.135,-15733.661,-1238.041,-17191.643,-9054.490,-6702.528,0
14773.988,-17218.219,-15072.608,-11597.225,-15742.222,-1238.890,-17198.482,-9052.322,-6700.360,0
14773.988,-17218.867,-15073.972,-11596.397,-15745.574,-1238.734,-17200.002,-9052.501,-6700.740,0
14773.988,-17215.381,-15071.133,-11590.698,-15739.048,-1239.047,-17195.332,-9054.938,-6701.925,0
14773.988,-17208.295,-15064.114,-11584.842,-15728.342,-1239.203,-17188.625,-9057.865,-6705.144,0
14773.988,-17206.238,-15062.036,-11585.401,-15728.476,-1236.856,-17189.811,-9056.859,-6704.451,0
14773.989,-17212.541,-15072.697,-11590.631,-15737.908,-1236.968,-17196.605,-9057.284,-6700.405,0
14773.989,-17217.080,-15078.621,-11594.453,-15742.870,-1238.823,-17198.125,-9058.760,-6702.931,0
14773.989,-17213.793,-15073.212,-11591.212,-15736.365,-1240.567,-17197.410,-9061.822,-6706.909,0
14773.989,-17206.508,-15066.506,-11585.781,-15726.039,-1241.461,-17192.180,-9067.499,-6712.408,0
14773.989,-17203.244,-15061.544,-11586.787,-15727.581,-1243.048,-17194.482,-9071.500,-6717.191,0
14773.989,-17205.121,-15061.700,-11593.381,-15734.979,-1243.182,-17199.801,-9071.857,-6716.654,0
14774.048,-17208.742,-15064.227,-11600.108,-15739.182,-1244.568,-17203.623,-9074.674,-6719.918,0
14774.048,-17206.395,-15061.812,-11597.292,-15732.700,-1244.076,-17200.605,-9074.831,-6719.918,0
14774.048,-17201.232,-15055.666,-11594.632,-15723.804,-1242.064,-17192.000,-9077.065,-6719.829,0
14774.048,-17201.209,-15056.851,-11596.397,-15725.994,-1241.125,-17191.553,-9078.854,-6720.387,0
14774.048,-17205.971,-15061.589,-11601.226,-15735.539,-1241.259,-17199.020,-9079.972,-6722.376,0
14774.048,-17211.537,-15068.339,-11604.489,-15741.730,-1241.528,-17203.221,-9078.810,-6724.098,0
14774.048,-17210.307,-15067.468,-11599.729,-15735.985,-1241.774,-17198.818,-9076.194,-6720.566,0
14774.048,-17203.713,-15059.019,-11592.062,-15724.854,-1239.762,-17191.666,-9075.523,-6719.381,0
14774.048,-17201.611,-15055.196,-11591.324,-15723.580,-1237.705,-17192.537,-9075.523,-6721.639,0
14774.048,-17207.133,-15063.422,-11596.957,-15733.393,-1238.130,-17199.467,-9072.037,-6717.303,0
14774.049,-17211.268,-15071.849,-11598.409,-15739.070,-1239.002,-17204.094,-9069.310,-6714.844,0
14774.049,-17207.469,-15065.791,-11593.783,-15731.762,-1239.315,-17200.473,-9070.383,-6716.208,0
14774.049,-17200.428,-15059.086,-11588.463,-15722.172,-1239.203,-17195.443,-9072.976,-6719.761,0
14774.049,-17199.914,-15057.968,-11590.027,-15723.603,-1238.153,-17197.588,-9075.814,-6720.901,0
14774.049,-17206.283,-15062.527,-11595.571,-15731.851,-1238.197,-17204.295,-9077.088,-6722.645,0
14774.108,-17212.229,-15070.820,-11599.595,-15737.617,-1239.807,-17207.758,-9076.172,-6722.399,0
14774.108,-17210.486,-15072.563,-11596.331,-15732.074,-1239.829,-17202.260,-9075.121,-6718.867,0
14774.108,-17206.641,-15065.411,-11590.587,-15722.239,-1237.080,-17192.447,-9072.483,-6718.353,0
14774.108,-17208.229,-15066.887,-11592.486,-15724.385,-1236.364,-17193.096,-9071.389,-6716.342,0
14774.108,-17208.027,-15062.773,-11596.286,-15732.119,-1238.331,-17198.393,-9069.824,-6712.251,0
14774.108,-17205.523,-15059.287,-11597.091,-15735.315,-1239.427,-17200.830,-9067.320,-6709.994,0
14774.109,-17202.395,-15057.923,-11592.821,-15727.917,-1239.248,-17196.963,-9066.628,-6713.458,0
14774.109,-17201.209,-15057.342,-11590.027,-15719.334,-1237.884,-17191.219,-9064.639,-6713.659,0
14774.109,-17206.350,-15059.868,-11593.447,-15723.357,-1239.002,-17192.939,-9066.873,-6710.128,0
14774.109,-17210.598,-15066.395,-11597.023,-15731.851,-1239.963,-17200.047,-9068.818,-6712.408,0
14774.109,-17210.373,-15065.769,-11600.398,-15736.231,-1240.321,-17203.109,-9069.443,-6715.112,0
14774.109,-17206.619,-15062.617,-11595.571,-15729.392,-1240.209,-17200.449,-9072.573,-6720.812,0
14774.109,-17201.254,-15060.248,-11589.380,-15719.267,-1237.482,-17193.453,-9075.456,-6722.645,0
14774.109,-17201.836,-15059.645,-11591.614,-15721.457,-1237.638,-17194.660,-9077.960,-6721.460,0
14774.109,-17204.830,-15060.583,-11595.459,-15728.766,-1238.823,-17202.127,-9078.586,-6724.880,0
14774.168,-17210.709,-15066.216,-11600.354,-15735.718,-1239.896,-17204.473,-9078.519,-6720.924,0
14774.168,-17207.268,-15061.634,-11595.884,-15728.923,-1237.415,-17197.656,-9074.987,-6716.878,0
14774.168,-17200.494,-15055.732,-11587.391,-15718.573,-1235.962,-17190.973,-9076.016,-6721.080,0
14774.169,-17195.465,-15052.872,-11586.272,-15719.558,-1236.387,-17191.979,-9077.178,-6722.623,0
14774.169,-17197.254,-15056.738,-11588.820,-15728.521,-1238.510,-17199.914,-9073.780,-6715.515,0
14774.169,-17203.400,-15064.428,-11592.263,-15734.398,-1239.158,-17204.629,-9070.606,-6716.632,0
14774.169,-17200.807,-15062.371,-11588.843,-15729.414,-1239.516,-17201.791,-9068.862,-6717.236,0
14774.169,-17194.705,-15056.672,-11581.199,-15719.334,-1238.555,-17194.570,-9069.466,-6716.789,0
14774.169,-17197.500,-15060.784,-11581.266,-15721.032,-1238.756,-17196.449,-9068.796,-6718.577,0
14774.169,-17204.271,-15070.597,-11586.406,-15730.867,-1241.349,-17204.518,-9069.466,-6717.280,0
14774.169,-17204.607,-15067.780,-11587.412,-15734.421,-1240.745,-17206.752,-9069.086,-6716.208,0
14774.169,-17199.914,-15061.053,-11582.987,-15728.006,-1237.862,-17201.656,-9066.359,-6715.537,0
14774.169,-17192.895,-15054.683,-11576.214,-15717.612,-1235.515,-17193.564,-9065.465,-6717.683,0
14774.169,-17194.348,-15051.508,-11580.483,-15719.400,-1237.571,-17196.002,-9069.422,-6723.092,0
14774.169,-17199.422,-15058.124,-11588.508,-15728.342,-1237.281,-17200.986,-9066.337,-6716.118,0
14774.229,-17204.049,-15064.763,-11590.653,-15734.823,-1237.773,-17202.818,-9064.929,-6710.150,0
14774.229,-17201.656,-15061.410,-11585.870,-15729.593,-1239.270,-17200.449,-9067.856,-6715.000,0
14774.229,-17195.689,-15055.397,-11580.596,-15719.938,-1237.549,-17194.326,-9069.108,-6718.420,0
14774.229,-17197.143,-15054.146,-11583.612,-15721.457,-1238.085,-17197.119,-9070.315,-6722.198,0
14774.229,-17200.518,-15058.549,-11588.910,-15729.168,-1238.577,-17204.160,-9067.097,-6716.521,0
14774.229,-17200.650,-15064.428,-11589.201,-15732.901,-1237.303,-17205.523,-9063.453,-6712.586,0
14774.229,-17199.488,-15064.070,-11586.898,-15728.073,-1237.661,-17203.445,-9065.600,-6715.403,0
14774.229,-17193.521,-15052.737,-11583.702,-15716.965,-1238.264,-17197.119,-9070.047,-6719.538,0
14774.229,-17196.180,-15053.878,-11587.524,-15719.468,-1241.774,-17200.316,-9076.663,-6726.266,0
14774.230,-17199.488,-15056.135,-11591.905,-15727.626,-1242.869,-17207.691,-9076.820,-6723.539,0
14774.230,-17202.617,-15062.818,-11593.515,-15733.326,-1243.606,-17212.318,-9075.233,-6722.019,0
14774.230,-17201.031,-15062.841,-11590.140,-15729.861,-1244.769,-17210.553,-9075.076,-6724.053,0
14774.230,-17197.924,-15059.376,-11583.144,-15719.803,-1242.846,-17201.791,-9072.729,-6722.153,0
14774.230,-17197.455,-15056.604,-11584.574,-15721.010,-1241.774,-17200.473,-9073.333,-6719.985,0
14774.230,-17202.215,-15071.133,-11589.044,-15729.168,-1239.628,-17205.232,-9067.231,-6712.363,0
14774.288,-17203.244,-15057.834,-11592.710,-15734.979,-1240.611,-17208.586,-9064.884,-6713.101,0
14774.288,-17201.053,-15054.593,-11588.016,-15729.615,-1239.807,-17204.070,-9063.319,-6712.497,0
14774.288,-17197.410,-15051.754,-11583.836,-15720.474,-1239.449,-17197.521,-9067.700,-6717.168,0
14774.288,-17198.572,-15053.408,-11585.401,-15720.742,-1238.309,-17197.164,-9070.785,-6719.359,0
14774.288,-17205.322,-15063.153,-11591.123,-15730.465,-1239.270,-17203.244,-9069.868,-6719.694,0
14774.288,-17208.295,-15067.289,-11595.303,-15736.143,-1239.538,-17205.613,-9066.359,-6716.453,0
14774.289,-17206.127,-15063.489,-11590.810,-15731.516,-1239.717,-17203.779,-9065.935,-6714.129,0
14774.289,-17202.818,-15063.108,-11586.831,-15723.111,-1240.544,-17198.393,-9070.159,-6718.599,0
14774.289,-17204.473,-15060.940,-11589.514,-15724.967,-1239.002,-17197.633,-9070.517,-6716.521,0
14774.289,-17210.262,-15067.021,-11594.945,-15733.772,-1236.968,-17201.500,-9064.571,-6709.077,0
14774.289,-17211.021,-15062.997,-11597.493,-15738.601,-1237.817,-17206.193,-9062.157,-6709.077,0
14774.289,-17208.809,-15058.259,-11597.403,-15732.990,-1239.628,-17201.410,-9065.935,-6711.894,0
14774.289,-17204.674,-15058.750,-11591.302,-15721.412,-1237.013,-17189.811,-9063.230,-6705.121,0
14774.289,-17206.932,-15068.495,-11592.486,-15723.760,-1237.482,-17190.994,-9064.884,-6705.769,0
14774.289,-17208.205,-15063.936,-11596.577,-15732.364,-1238.845,-17199.824,-9066.337,-6709.346,0
14774.348,-17209.189,-15061.231,-11600.779,-15736.522,-1238.711,-17204.830,-9068.527,-6711.134,0
14774.348,-17206.127,-15061.745,-11600.600,-15732.700,-1240.500,-17201.031,-9070.650,-6711.960,0
14774.348,-17201.680,-15055.040,-11594.654,-15723.245,-1241.997,-17195.264,-9074.406,-6715.403,0
14774.348,-17201.209,-15053.318,-11595.750,-15723.536,-1241.952,-17195.018,-9076.641,-6716.498,0
14774.348,-17204.139,-15057.588,-11599.349,-15731.851,-1241.639,-17201.434,-9075.166,-6716.476,0
14774.348,-17209.145,-15062.438,-11600.332,-15738.802,-1242.846,-17206.283,-9072.461,-6711.715,0
14774.348,-17209.770,-15064.539,-11597.873,-15734.197,-1243.450,-17203.221,-9072.483,-6711.804,0
14774.348,-17206.664,-15064.785,-11592.330,-15724.027,-1242.310,-17196.359,-9073.602,-6712.833,0
14774.348,-17209.412,-15071.714,-11593.805,-15725.592,-1241.617,-17197.143,-9074.183,-6712.944,0
14774.348,-17211.895,-15072.385,-11599.415,-15733.639,-1240.723,-17203.578,-9072.506,-6711.782,0
14774.349,-17213.838,-15084.723,-11597.918,-15738.109,-1240.835,-17207.982,-9070.874,-6711.268,0
14774.349,-17205.859,-15062.550,-11594.498,-15732.499,-1242.735,-17207.625,-9072.171,-6718.733,0
14774.349,-17202.506,-15060.985,-11589.089,-15722.798,-1241.349,-17199.578,-9072.752,-6715.693,0
14774.349,-17203.064,-15061.231,-11590.542,-15723.268,-1240.209,-17199.020,-9075.858,-6712.721,0
14774.349,-17207.871,-15073.436,-11595.325,-15732.856,-1239.538,-17205.121,-9073.378,-6715.269,0
14774.408,-17211.604,-15071.089,-11598.454,-15738.959,-1240.276,-17209.436,-9072.015,-6716.766,0
14774.408,-17210.732,-15068.585,-11596.756,-15734.466,-1238.845,-17204.271,-9070.182,-6716.230,0
14774.408,-17207.514,-15064.539,-11591.749,-15724.095,-1236.543,-17195.152,-9069.734,-6716.677,0
14774.408,-17209.211,-15068.630,-11592.308,-15724.564,-1236.610,-17195.287,-9071.992,-6716.632,0
14774.408,-17212.676,-15069.010,-11600.734,-15733.772,-1238.488,-17200.807,-9073.132,-6713.436,0
14774.408,-17212.676,-15067.579,-11604.444,-15739.138,-1238.287,-17201.791,-9069.556,-6707.557,0
14774.409,-17209.480,-15063.646,-11598.119,-15734.488,-1236.968,-17198.795,-9063.945,-6703.199,0
14774.409,-17203.869,-15059.130,-11590.989,-15724.095,-1236.052,-17193.051,-9069.422,-6709.792,0
14774.409,-17204.361,-15061.030,-11590.520,-15724.140,-1235.381,-17191.822,-9069.488,-6713.212,0
14774.409,-17213.660,-15071.982,-11597.896,-15735.047,-1235.873,-17198.975,-9066.851,-6709.949,0
14774.409,-17216.051,-15065.054,-11602.925,-15740.836,-1235.917,-17202.707,-9066.829,-6708.228,0
14774.409,-17216.408,-15071.334,-11600.556,-15736.902,-1235.917,-17201.121,-9066.359,-6709.211,0
14774.409,-17212.943,-15070.149,-11594.252,-15727.604,-1236.856,-17195.756,-9069.667,-6710.687,0
14774.409,-17210.217,-15073.056,-11590.587,-15727.336,-1234.643,-17194.527,-9068.215,-6708.742,0
14774.409,-17217.125,-15082.309,-11597.471,-15736.790,-1237.862,-17205.389,-9072.059,-6715.783,0
14774.409,-17219.873,-15076.609,-11602.254,-15740.881,-1239.225,-17209.859,-9074.160,-6717.370,0
14774.469,-17215.961,-15070.463,-11594.722,-15735.002,-1238.756,-17205.746,-9068.259,-6714.710,0
14774.470,-17211.736,-15064.315,-11587.412,-15725.391,-1237.773,-17197.029,-9064.169,-6712.072,0
14774.470,-17212.162,-15068.518,-11587.256,-15725.101,-1235.917,-17195.621,-9065.957,-6704.763,0
14774.470,-17216.453,-15073.189,-11595.884,-15735.874,-1238.085,-17202.260,-9069.689,-6705.166,0
14774.470,-17218.488,-15078.219,-11595.213,-15741.104,-1237.661,-17204.941,-9062.112,-6701.791,0
14774.470,-17214.062,-15074.665,-11590.273,-15735.271,-1237.549,-17200.203,-9057.218,-6703.154,0
14774.470,-17206.328,-15067.222,-11583.971,-15724.206,-1239.114,-17193.811,-9061.956,-6708.854,0
14774.470,-17202.551,-15068.474,-11586.652,-15723.647,-1240.723,-17195.979,-9067.946,-6713.659,0
14774.470,-17204.965,-15071.960,-11595.102,-15731.582,-1240.678,-17202.932,-9070.248,-6715.023,0
14774.470,-17205.523,-15074.665,-11600.466,-15737.260,-1240.567,-17207.871,-9070.360,-6715.492,0
14774.470,-17204.406,-15073.927,-11600.757,-15732.812,-1240.567,-17205.143,-9070.449,-6715.961,0
14774.471,-17198.996,-15056.046,-11600.086,-15721.368,-1239.158,-17196.984,-9070.271,-6715.492,0
14774.471,-17200.896,-15054.437,-11600.086,-15723.200,-1240.120,-17199.311,-9075.412,-6717.750,0
14774.471,-17209.814,-15073.257,-11600.131,-15733.840,-1240.410,-17207.244,-9076.373,-6716.163,0
14774.471,-17212.229,-15067.021,-11605.629,-15739.763,-1241.014,-17209.994,-9077.088,-6715.895,0
14774.530,-17209.189,-15067.132,-11603.662,-15734.645,-1239.672,-17205.502,-9074.160,-6713.950,0
14774.530,-17206.953,-15065.076,-11600.913,-15727.022,-1239.941,-17198.773,-9076.663,-6715.336,0
14774.530,-17207.535,-15063.712,-11600.645,-15726.866,-1238.912,-17199.109,-9076.194,-6715.828,0
14774.530,-17213.012,-15066.439,-11607.172,-15735.896,-1240.120,-17204.941,-9079.592,-6719.806,0
14774.530,-17218.197,-15074.084,-11608.915,-15742.848,-1239.471,-17209.525,-9075.792,-6718.666,0
14774.530,-17215.201,-15074.731,-11603.662,-15738.109,-1236.923,-17204.115,-9070.606,-6709.815,0
14774.530,-17210.889,-15080.186,-11597.561,-15728.722,-1236.968,-17198.482,-9074.562,-6711.960,0
14774.530,-17207.514,-15065.098,-11597.940,-15726.396,-1237.147,-17198.191,-9083.458,-6719.270,0
14774.530,-17213.234,-15066.551,-11604.177,-15736.098,-1239.605,-17207.826,-9086.230,-6723.092,0
14774.530,-17220.990,-15079.202,-11605.204,-15743.607,-1240.254,-17212.943,-9080.776,-6718.800,0
14774.531,-17216.252,-15074.039,-11599.773,-15737.572,-1240.544,-17210.619,-9079.100,-6718.800,0
14774.531,-17209.883,-15069.971,-11593.180,-15725.972,-1238.600,-17202.887,-9077.736,-6718.778,0
14774.531,-17211.826,-15073.793,-11596.778,-15726.978,-1239.695,-17199.936,-9080.195,-6719.359,0
14774.531,-17218.242,-15079.225,-11598.969,-15736.053,-1241.617,-17206.910,-9077.312,-6716.230,0
14774.531,-17222.377,-15091.474,-11599.751,-15742.893,-1241.125,-17209.592,-9070.629,-6710.933,0
14774.590,-17215.738,-15074.263,-11597.873,-15739.294,-1241.975,-17207.646,-9071.992,-6711.916,0
14774.590,-17208.697,-15067.244,-11590.631,-15727.850,-1239.203,-17198.371,-9068.975,-6709.882,0
14774.590,-17205.322,-15065.635,-11589.066,-15726.218,-1238.801,-17195.666,-9065.465,-6707.848,0
14774.590,-17205.211,-15060.248,-11594.654,-15733.035,-1241.662,-17201.768,-9069.198,-6710.105,0
14774.590,-17205.725,-15065.769,-11598.298,-15738.557,-1242.176,-17203.713,-9067.768,-6706.864,0
14774.590,-17203.848,-15065.522,-11597.337,-15735.315,-1241.908,-17199.734,-9065.778,-6702.327,0
14774.590,-17198.684,-15055.934,-11594.096,-15725.101,-1240.388,-17191.219,-9066.963,-6703.624,0
14774.591,-17197.543,-15053.989,-11591.928,-15722.485,-1239.561,-17189.520,-9068.595,-6705.613,0
14774.591,-17202.752,-15064.315,-11597.985,-15732.924,-1240.991,-17196.918,-9070.137,-6705.881,0
14774.591,-17203.490,-15066.618,-11600.265,-15738.355,-1241.259,-17201.479,-9068.326,-6702.863,0
14774.591,-17198.818,-15061.410,-11597.516,-15733.259,-1241.394,-17197.633,-9066.337,-6701.545,0
14774.591,-17192.961,-15056.515,-11590.810,-15722.262,-1240.768,-17192.291,-9067.097,-6702.662,0
14774.591,-17191.934,-15054.660,-11591.973,-15721.524,-1239.538,-17191.039,-9068.014,-6704.406,0
14774.591,-17195.891,-15060.449,-11594.476,-15729.750,-1239.762,-17197.789,-9070.271,-6705.277,0
14774.591,-17201.590,-15065.769,-11598.879,-15737.617,-1240.164,-17204.920,-9070.539,-6704.026,0
14774.649,-17205.502,-15067.959,-11596.442,-15735.874,-1240.857,-17204.139,-9065.688,-6703.445,0
14774.650,-17202.484,-15070.328,-11590.027,-15725.391,-1239.382,-17196.807,-9062.112,-6701.813,0
14774.650,-17200.875,-15069.144,-11588.843,-15724.072,-1239.091,-17198.191,-9063.878,-6705.903,0
14774.650,-17205.256,-15058.549,-11594.609,-15732.812,-1241.639,-17206.373,-9069.354,-6710.284,0
14774.650,-17210.330,-15066.976,-11597.247,-15738.557,-1240.879,-17210.664,-9068.259,-6708.675,0
14774.650,-17213.391,-15072.810,-11595.772,-15737.461,-1241.125,-17208.027,-9062.470,-6705.680,0
14774.650,-17208.721,-15068.965,-11588.396,-15726.195,-1238.577,-17199.311,-9058.201,-6702.148,0
14774.650,-17206.797,-15073.949,-11587.189,-15725.771,-1238.868,-17197.455,-9061.084,-6701.522,0
14774.650,-17208.361,-15071.044,-11591.257,-15734.041,-1240.388,-17203.221,-9067.187,-6703.132,0
14774.650,-17212.162,-15070.687,-11597.828,-15740.747,-1241.706,-17211.648,-9067.030,-6707.848,0
14774.650,-17210.820,-15074.263,-11594.028,-15736.433,-1240.544,-17210.598,-9063.610,-6712.318,0
14774.650,-17206.820,-15066.774,-11589.983,-15727.515,-1240.857,-17203.377,-9067.074,-6715.023,0
14774.650,-17205.389,-15063.847,-11591.458,-15726.509,-1240.678,-17201.031,-9069.645,-6714.173,0
14774.651,-17211.895,-15075.224,-11599.236,-15736.611,-1244.009,-17209.814,-9071.724,-6714.732,0
14774.651,-17211.514,-15075.782,-11603.617,-15741.708,-1245.327,-17212.676,-9073.602,-6712.609,0
14774.709,-17208.250,-15075.269,-11598.208,-15737.327,-1244.679,-17208.965,-9072.395,-6710.753,0
14774.709,-17203.334,-15071.446,-11592.240,-15727.492,-1244.344,-17201.992,-9072.438,-6712.273,0
14774.709,-17201.434,-15068.675,-11591.771,-15725.771,-1244.366,-17200.025,-9076.999,-6714.464,0
14774.710,-17203.355,-15071.714,-11594.923,-15733.013,-1243.159,-17206.686,-9074.183,-6713.078,0
14774.710,-17207.199,-15078.174,-11597.136,-15740.076,-1242.601,-17210.910,-9070.472,-6712.273,0
14774.710,-17205.143,-15080.074,-11593.604,-15736.991,-1243.271,-17207.916,-9069.086,-6708.563,0
14774.710,-17197.701,-15067.021,-11588.575,-15725.503,-1242.623,-17198.594,-9070.204,-6708.206,0
14774.710,-17195.197,-15057.275,-11588.955,-15723.737,-1241.461,-17195.846,-9068.595,-6704.674,0
14774.710,-17201.768,-15066.774,-11592.800,-15733.527,-1240.701,-17200.762,-9063.297,-6700.561,0
14774.710,-17206.529,-15076.117,-11594.878,-15741.238,-1239.248,-17203.578,-9059.587,-6694.817,0
14774.710,-17201.926,-15064.785,-11590.072,-15736.143,-1239.807,-17201.590,-9064.348,-6699.354,0
14774.711,-17195.398,-15059.287,-11583.188,-15724.497,-1240.857,-17195.867,-9070.092,-6705.635,0
14774.711,-17196.941,-15061.812,-11585.669,-15723.379,-1242.310,-17197.945,-9070.092,-6708.295,0
14774.711,-17206.842,-15074.128,-11596.510,-15733.527,-1245.015,-17207.289,-9073.266,-6710.687,0
14774.711,-17215.672,-15082.823,-11603.617,-15740.680,-1246.870,-17214.510,-9074.316,-6713.123,0
14774.769,-17217.816,-15083.493,-11602.008,-15737.126,-1247.004,-17213.838,-9073.825,-6712.989,0
14774.770,-17214.396,-15080.744,-11596.442,-15726.509,-1246.110,-17207.199,-9074.004,-6715.291,0
14774.770,-17214.576,-15077.079,-11597.023,-15724.854,-1245.484,-17205.076,-9077.513,-6718.912,0
14774.770,-17221.951,-15085.059,-11602.656,-15733.304,-1245.752,-17211.223,-9079.413,-6718.599,0
14774.770,-17225.193,-15086.824,-11607.060,-15739.518,-1246.825,-17216.342,-9078.541,-6721.281,0
14774.770,-17223.227,-15085.394,-11607.395,-15737.796,-1248.680,-17214.777,-9081.000,-6721.482,0
14774.770,-17215.805,-15075.850,-11600.936,-15726.665,-1248.032,-17206.551,-9084.285,-6721.192,0
14774.770,-17212.162,-15074.688,-11599.259,-15723.603,-1247.049,-17204.518,-9085.560,-6721.192,0
14774.770,-17215.180,-15080.477,-11606.411,-15733.236,-1248.926,-17211.000,-9085.225,-6721.729,0
14774.770,-17216.834,-15080.454,-11610.189,-15739.562,-1249.217,-17214.309,-9082.922,-6719.426,0
14774.770,-17213.324,-15075.737,-11607.932,-15735.338,-1248.546,-17210.709,-9078.049,-6716.364,0
14774.770,-17207.982,-15068.451,-11603.662,-15724.899,-1248.904,-17203.512,-9079.592,-6716.677,0
14774.770,-17203.938,-15064.674,-11601.047,-15722.798,-1248.703,-17202.551,-9082.497,-6718.845,0
14774.770,-17206.148,-15068.183,-11603.886,-15731.136,-1249.060,-17208.094,-9082.140,-6719.024,0
14774.771,-17209.814,-15072.988,-11608.669,-15739.339,-1249.507,-17212.162,-9079.256,-6715.067,0
14774.830,-17209.055,-15072.050,-11606.009,-15736.634,-1249.060,-17209.568,-9079.726,-6714.040,0
14774.830,-17206.619,-15071.490,-11599.907,-15726.330,-1247.875,-17202.596,-9083.324,-6715.961,0
14774.830,-17206.350,-15071.066,-11598.946,-15725.101,-1248.099,-17201.992,-9082.721,-6718.577,0
14774.830,-17209.145,-15073.793,-11603.350,-15733.326,-1249.708,-17209.324,-9082.140,-6719.694,0
14774.830,-17211.895,-15078.777,-11607.015,-15739.853,-1250.223,-17214.799,-9080.821,-6719.359,0
14774.830,-17208.787,-15074.933,-11604.132,-15735.963,-1249.843,-17213.213,-9084.330,-6721.907,0
14774.830,-17203.623,-15066.506,-11599.349,-15725.347,-1248.613,-17206.730,-9088.487,-6722.936,0
14774.830,-17206.373,-15067.870,-11601.092,-15725.011,-1248.703,-17206.418,-9090.253,-6723.650,0
14774.830,-17212.541,-15077.771,-11607.127,-15733.326,-1247.831,-17211.648,-9081.335,-6721.259,0
14774.830,-17217.080,-15080.856,-11613.386,-15740.411,-1248.725,-17217.885,-9080.105,-6721.930,0
14774.831,-17219.135,-15085.059,-11611.374,-15740.903,-1250.826,-17217.684,-9081.715,-6722.555,0
14774.831,-17212.721,-15078.688,-11601.427,-15729.728,-1249.507,-17209.189,-9079.703,-6718.688,0
14774.831,-17210.016,-15073.167,-11598.230,-15725.771,-1248.054,-17205.502,-9075.054,-6715.269,0
14774.831,-17215.693,-15075.938,-11604.869,-15735.069,-1249.999,-17211.268,-9079.547,-6717.973,0
14774.831,-17215.357,-15074.441,-11608.021,-15739.875,-1251.564,-17215.648,-9083.213,-6718.823,0
14774.889,-17211.000,-15069.055,-11605.562,-15735.583,-1252.145,-17212.207,-9086.677,-6720.879,0
14774.889,-17206.953,-15067.624,-11601.069,-15725.994,-1251.452,-17204.697,-9082.497,-6722.779,0
14774.890,-17210.732,-15077.459,-11601.315,-15726.934,-1251.921,-17204.854,-9083.570,-6725.573,0
14774.890,-17216.633,-15087.338,-11604.646,-15735.896,-1248.881,-17209.613,-9080.239,-6720.142,0
14774.890,-17219.248,-15082.555,-11609.697,-15742.624,-1248.255,-17213.949,-9082.363,-6719.471,0
14774.890,-17219.650,-15083.605,-11607.351,-15741.238,-1248.121,-17212.453,-9080.061,-6717.236,0
14774.890,-17216.744,-15082.220,-11601.718,-15731.627,-1248.121,-17204.227,-9080.709,-6719.247,0
14774.890,-17217.326,-15087.159,-11602.679,-15730.711,-1248.211,-17203.289,-9086.029,-6723.360,0
14774.890,-17220.924,-15081.862,-11609.250,-15738.266,-1248.658,-17209.949,-9090.142,-6725.953,0
14774.890,-17226.467,-15089.641,-11613.072,-15745.664,-1248.099,-17213.547,-9087.481,-6722.376,0
14774.890,-17226.893,-15088.680,-11615.531,-15745.687,-1250.290,-17213.346,-9088.309,-6722.332,0
14774.890,-17220.924,-15088.120,-11610.771,-15736.455,-1249.708,-17206.418,-9089.538,-6720.208,0
14774.891,-17219.650,-15088.210,-11610.814,-15734.421,-1250.066,-17205.680,-9094.075,-6725.908,0
14774.891,-17228.545,-15095.362,-11619.152,-15744.055,-1251.519,-17213.279,-9092.712,-6727.518,0
14774.891,-17233.373,-15097.352,-11622.795,-15751.342,-1252.055,-17219.561,-9089.427,-6726.467,0
14774.950,-17233.262,-15101.018,-11616.358,-15747.341,-1250.602,-17217.840,-9085.067,-6722.220,0
14774.950,-17227.740,-15095.184,-11611.374,-15736.947,-1252.413,-17211.537,-9087.884,-6726.892,0
14774.950,-17225.416,-15095.563,-11610.435,-15734.153,-1252.592,-17209.346,-9089.873,-6728.255,0
14774.950,-17230.021,-15104.460,-11616.582,-15743.496,-1253.419,-17216.521,-9089.605,-6728.881,0
14774.950,-17229.820,-15098.224,-11622.214,-15750.626,-1255.185,-17223.518,-9095.573,-6729.149,0
14774.950,-17228.992,-15093.865,-11622.035,-15748.458,-1256.682,-17222.623,-9095.976,-6728.926,0
14774.950,-17225.484,-15088.970,-11615.486,-15738.735,-1255.140,-17215.559,-9091.729,-6731.429,0
14774.951,-17225.529,-15089.417,-11615.777,-15738.087,-1255.542,-17215.201,-9093.785,-6736.727,0
14774.951,-17227.809,-15093.061,-11618.549,-15744.010,-1255.721,-17219.918,-9092.488,-6733.575,0
14774.951,-17232.838,-15102.783,-11622.147,-15752.012,-1257.129,-17226.020,-9092.108,-6732.122,0
14774.951,-17232.838,-15104.817,-11621.432,-15751.453,-1257.531,-17226.445,-9091.684,-6733.933,0
14774.951,-17229.148,-15097.799,-11615.396,-15741.082,-1255.855,-17217.816,-9092.802,-6734.782,0
14774.951,-17227.809,-15093.149,-11613.430,-15739.115,-1254.492,-17213.436,-9092.041,-6734.804,0
14774.951,-17230.355,-15094.446,-11616.783,-15747.631,-1252.614,-17216.297,-9089.292,-6730.602,0
14774.951,-17232.547,-15095.854,-11620.046,-15755.097,-1251.787,-17219.158,-9085.426,-6725.238,0
14775.010,-17231.922,-15094.044,-11618.481,-15754.247,-1252.793,-17218.264,-9085.291,-6725.461,0
14775.010,-17228.457,-15087.785,-11615.129,-15745.709,-1254.514,-17212.162,-9091.729,-6728.836,0
14775.010,-17225.170,-15090.244,-11613.766,-15741.730,-1253.687,-17209.525,-9095.618,-6729.015,0
14775.010,-17230.154,-15097.575,-11619.979,-15748.682,-1255.430,-17215.627,-9094.902,-6729.127,0
14775.010,-17236.303,-15105.778,-11625.656,-15755.879,-1257.084,-17220.879,-9091.572,-6727.831,0
14775.010,-17235.967,-15102.046,-11627.109,-15754.358,-1258.716,-17222.600,-9090.700,-6729.149,0
14775.010,-17234.246,-15101.084,-11623.063,-15744.412,-1260.124,-17217.369,-9093.293,-6733.418,0
14775.011,-17233.061,-15102.023,-11620.739,-15739.763,-1259.163,-17216.074,-9097.495,-6736.123,0
14775.011,-17236.078,-15105.600,-11623.846,-15747.362,-1260.951,-17222.488,-9102.100,-6739.542,0
14775.011,-17236.793,-15102.783,-11627.780,-15755.163,-1262.963,-17228.166,-9104.849,-6744.460,0
14775.011,-17233.553,-15098.872,-11625.567,-15752.861,-1264.908,-17228.791,-9106.234,-6745.935,0
14775.011,-17227.719,-15097.105,-11618.280,-15741.529,-1264.908,-17222.064,-9105.631,-6744.907,0
14775.011,-17227.295,-15095.116,-11617.855,-15739.942,-1264.729,-17218.867,-9106.771,-6742.829,0
14775.011,-17231.184,-15097.530,-11623.556,-15749.285,-1263.924,-17224.947,-9105.408,-6742.426,0
14775.011,-17234.648,-15098.983,-11625.545,-15756.281,-1262.225,-17230.111,-9102.278,-6740.504,0
14775.070,-17235.096,-15106.672,-11622.885,-15754.358,-1261.555,-17230.445,-9098.345,-6739.789,0
14775.070,-17230.580,-15099.877,-11618.504,-15745.016,-1260.571,-17223.092,-9098.255,-6739.029,0
14775.070,-17229.820,-15095.251,-11617.788,-15743.205,-1259.789,-17220.879,-9100.334,-6740.660,0
14775.070,-17235.027,-15103.432,-11623.622,-15751.319,-1259.901,-17224.680,-9098.367,-6738.112,0
14775.071,-17237.219,-15110.695,-11628.495,-15759.589,-1261.622,-17230.715,-9098.546,-6736.458,0
14775.071,-17233.217,-15104.102,-11625.366,-15755.387,-1261.979,-17229.395,-9098.926,-6737.509,0
14775.071,-17229.418,-15104.683,-11617.229,-15745.933,-1260.013,-17221.035,-9095.908,-6734.827,0
14775.071,-17227.809,-15099.632,-11620.873,-15743.876,-1258.917,-17217.281,-9098.903,-6739.587,0
14775.071,-17231.229,-15101.330,-11626.551,-15751.363,-1259.074,-17220.477,-9101.652,-6739.900,0
14775.071,-17235.498,-15107.700,-11628.853,-15757.287,-1260.348,-17225.506,-9100.714,-6737.308,0
14775.071,-17235.340,-15108.260,-11628.428,-15752.884,-1260.504,-17222.623,-9098.971,-6734.514,0
14775.071,-17230.355,-15100.928,-11624.315,-15742.088,-1260.571,-17216.297,-9101.094,-6736.034,0
14775.071,-17229.842,-15095.787,-11625.902,-15741.552,-1262.382,-17216.297,-9106.570,-6740.616,0
14775.071,-17235.297,-15098.648,-11629.612,-15748.458,-1263.455,-17222.398,-9106.749,-6741.420,0
14775.071,-17241.777,-15110.405,-11634.776,-15755.745,-1265.310,-17230.289,-9107.308,-6742.336,0
14775.130,-17238.717,-15108.170,-11633.167,-15753.867,-1265.153,-17229.262,-9105.117,-6741.219,0
14775.130,-17229.932,-15096.793,-11624.718,-15742.312,-1263.835,-17221.305,-9105.877,-6739.587,0
14775.131,-17228.367,-15098.760,-11623.019,-15739.093,-1263.142,-17220.812,-9108.604,-6744.058,0
14775.131,-17231.318,-15103.990,-11628.808,-15748.503,-1265.198,-17228.121,-9109.722,-6746.002,0
14775.131,-17231.943,-15105.466,-11629.903,-15754.180,-1265.019,-17233.195,-9110.258,-6746.204,0
14775.131,-17229.932,-15104.393,-11626.126,-15752.325,-1262.270,-17229.709,-9103.888,-6740.168,0
14775.131,-17227.205,-15101.956,-11619.935,-15744.703,-1262.494,-17223.404,-9098.971,-6738.269,0
14775.131,-17226.244,-15101.777,-11617.677,-15742.312,-1262.918,-17221.393,-9100.938,-6740.146,0
14775.131,-17227.740,-15107.745,-11619.397,-15747.765,-1263.365,-17226.848,-9102.994,-6739.878,0
14775.131,-17228.076,-15096.391,-11623.041,-15754.091,-1264.148,-17231.988,-9107.800,-6742.672,0
14775.131,-17227.205,-15094.736,-11620.583,-15754.113,-1264.014,-17231.652,-9101.697,-6738.447,0
14775.131,-17221.594,-15084.478,-11611.776,-15743.361,-1260.661,-17220.812,-9095.015,-6731.519,0
14775.131,-17221.305,-15083.427,-11609.697,-15739.964,-1259.007,-17215.582,-9094.612,-6731.451,0
14775.131,-17226.020,-15089.573,-11614.905,-15747.832,-1259.543,-17220.098,-9096.355,-6733.329,0
14775.132,-17229.932,-15097.396,-11620.918,-15756.772,-1262.404,-17225.975,-9099.261,-6735.854,0
14775.191,-17229.977,-15100.258,-11620.784,-15755.901,-1262.382,-17224.098,-9098.523,-6735.609,0
14775.191,-17225.596,-15093.619,-11616.112,-15745.955,-1262.047,-17217.930,-9099.261,-6736.838,0
14775.191,-17224.656,-15091.004,-11615.554,-15741.864,-1261.577,-17214.240,-9101.586,-6737.911,0
14775.191,-17225.863,-15089.864,-11619.062,-15747.452,-1262.114,-17218.354,-9102.212,-6737.978,0
14775.191,-17227.697,-15092.658,-11624.069,-15754.202,-1263.991,-17225.193,-9104.245,-6740.481,0
14775.191,-17229.641,-15095.161,-11625.701,-15754.828,-1266.383,-17227.025,-9105.676,-6740.683,0
14775.191,-17226.959,-15092.367,-11619.756,-15744.726,-1263.835,-17220.387,-9102.368,-6738.515,0
14775.191,-17227.518,-15095.005,-11617.989,-15741.932,-1262.918,-17220.141,-9105.318,-6741.622,0
14775.192,-17233.799,-15099.855,-11624.718,-15749.575,-1263.276,-17225.371,-9107.129,-6742.761,0
14775.192,-17240.459,-15111.054,-11630.842,-15758.002,-1263.857,-17230.646,-9105.072,-6740.750,0
14775.192,-17239.990,-15107.187,-11626.327,-15757.063,-1264.930,-17230.848,-9106.727,-6741.375,0
14775.192,-17237.039,-15104.236,-11622.080,-15747.072,-1263.499,-17222.131,-9107.397,-6740.996,0
14775.192,-17235.207,-15109.221,-11620.023,-15743.541,-1261.890,-17218.354,-9104.559,-6739.521,0
14775.192,-17236.682,-15104.504,-11624.673,-15749.866,-1263.075,-17224.455,-9105.140,-6740.079,0
14775.192,-17238.492,-15105.309,-11629.479,-15756.013,-1265.176,-17230.646,-9108.269,-6743.454,0
14775.250,-17236.391,-15104.325,-11626.685,-15753.822,-1265.779,-17229.418,-9105.721,-6742.113,0
14775.250,-17232.994,-15099.877,-11620.806,-15744.323,-1265.533,-17223.561,-9104.692,-6740.370,0
14775.250,-17229.730,-15094.893,-11618.929,-15739.182,-1264.952,-17221.662,-9107.643,-6742.739,0
14775.250,-17231.877,-15099.944,-11622.550,-15746.625,-1264.952,-17227.295,-9109.387,-6745.175,0
14775.250,-17233.598,-15102.426,-11625.857,-15754.403,-1264.818,-17232.324,-9110.929,-6742.538,0
14775.250,-17234.447,-15107.477,-11625.143,-15753.599,-1263.812,-17231.832,-9107.151,-6740.526,0
14775.250,-17233.127,-15103.230,-11621.454,-15743.250,-1263.298,-17225.148,-9106.480,-6741.442,0
14775.251,-17231.652,-15101.375,-11620.181,-15738.713,-1264.617,-17223.896,-9108.582,-6740.548,0
14775.251,-17235.006,-15107.298,-11624.784,-15745.574,-1266.427,-17232.055,-9111.264,-6745.466,0
14775.251,-17239.543,-15113.043,-11630.708,-15753.331,-1268.037,-17240.035,-9115.131,-6748.148,0
14775.251,-17241.822,-15120.687,-11631.155,-15754.381,-1268.774,-17241.107,-9113.589,-6747.411,0
14775.251,-17234.291,-15109.310,-11623.980,-15743.474,-1268.707,-17235.340,-9114.080,-6749.266,0
14775.251,-17229.998,-15098.290,-11620.292,-15738.668,-1269.937,-17234.133,-9115.466,-6751.255,0
14775.251,-17231.318,-15104.214,-11622.885,-15744.166,-1270.026,-17238.426,-9115.868,-6753.177,0
14775.251,-17235.072,-15109.824,-11627.690,-15753.130,-1271.613,-17244.438,-9120.115,-6753.088,0
14775.310,-17235.363,-15107.410,-11628.473,-15753.755,-1272.775,-17245.266,-9121.076,-6752.909,0
14775.310,-17229.439,-15101.486,-11623.868,-15743.139,-1270.965,-17237.867,-9121.010,-6753.065,0
14775.310,-17226.422,-15098.425,-11622.058,-15739.249,-1270.227,-17235.340,-9123.222,-6757.916,0
14775.310,-17227.025,-15097.620,-11625.321,-15742.938,-1267.590,-17236.592,-9124.608,-6757.849,0
14775.310,-17233.463,-15104.683,-11633.211,-15753.420,-1270.652,-17244.125,-9128.542,-6757.670,0
14775.310,-17232.994,-15106.226,-11631.043,-15752.079,-1269.601,-17241.264,-9121.232,-6751.367,0
14775.310,-17227.539,-15097.866,-11624.718,-15740.970,-1267.947,-17232.346,-9120.249,-6751.613,0
14775.310,-17229.418,-15103.096,-11625.947,-15740.434,-1268.730,-17231.049,-9120.875,-6754.183,0
14775.310,-17230.469,-15098.536,-11631.110,-15747.296,-1269.378,-17236.279,-9124.742,-6757.290,0
14775.311,-17232.814,-15103.118,-11634.061,-15753.755,-1269.177,-17240.771,-9122.015,-6754.183,0
14775.311,-17231.496,-15103.387,-11631.759,-15752.481,-1271.792,-17242.627,-9122.887,-6753.401,0
14775.311,-17229.373,-15098.290,-11628.138,-15744.613,-1273.312,-17238.201,-9126.262,-6756.821,0
14775.311,-17228.658,-15092.613,-11626.081,-15739.450,-1271.457,-17235.900,-9123.088,-6759.033,0
14775.311,-17236.012,-15099.095,-11633.167,-15747.050,-1270.875,-17239.096,-9124.541,-6757.715,0
14775.311,-17241.264,-15104.146,-11638.486,-15755.812,-1271.926,-17242.494,-9125.032,-6755.591,0
14775.370,-17239.432,-15105.063,-11636.140,-15755.968,-1272.619,-17240.840,-9124.451,-6752.708,0
14775.370,-17232.904,-15097.083,-11629.501,-15745.664,-1271.792,-17233.529,-9123.021,-6751.300,0
14775.370,-17232.166,-15096.726,-11626.148,-15741.216,-1271.345,-17232.055,-9122.149,-6754.049,0
14775.370,-17237.688,-15103.319,-11629.300,-15747.721,-1271.144,-17235.922,-9124.854,-6752.238,0
14775.370,-17241.846,-15107.812,-11632.496,-15755.565,-1271.501,-17239.408,-9119.311,-6748.282,0
14775.371,-17239.789,-15106.516,-11632.049,-15756.438,-1271.837,-17238.381,-9118.372,-6747.969,0
14775.371,-17232.637,-15098.983,-11624.763,-15745.999,-1269.043,-17230.469,-9116.114,-6744.818,0
14775.371,-17230.670,-15096.502,-11622.751,-15741.507,-1268.260,-17227.025,-9116.785,-6748.461,0
14775.371,-17233.775,-15103.141,-11627.824,-15748.569,-1268.663,-17231.676,-9118.483,-6747.388,0
14775.371,-17237.084,-15112.104,-11631.400,-15756.304,-1270.808,-17237.799,-9117.366,-6745.578,0
14775.371,-17237.867,-15108.706,-11631.133,-15757.220,-1274.251,-17241.531,-9117.210,-6748.819,0
14775.371,-17233.508,-15100.279,-11625.187,-15748.056,-1272.306,-17234.781,-9109.543,-6746.695,0
14775.371,-17230.959,-15100.480,-11624.740,-15743.474,-1270.898,-17231.832,-9112.717,-6746.807,0
14775.371,-17232.838,-15103.655,-11628.025,-15748.548,-1271.501,-17236.994,-9118.305,-6749.936,0
14775.371,-17237.396,-15108.237,-11633.167,-15756.729,-1273.826,-17242.092,-9119.154,-6750.741,0
14775.430,-17238.559,-15115.702,-11629.680,-15755.387,-1272.798,-17240.258,-9115.578,-6747.455,0
14775.430,-17233.688,-15102.984,-11623.556,-15746.446,-1273.468,-17235.855,-9117.746,-6750.696,0
14775.430,-17231.184,-15100.034,-11621.700,-15741.909,-1273.021,-17233.688,-9119.333,-6751.881,0
14775.431,-17234.559,-15109.243,-11626.617,-15749.106,-1272.530,-17238.357,-9118.886,-6750.651,0
14775.431,-17238.961,-15117.446,-11630.261,-15757.152,-1271.971,-17243.342,-9115.823,-6748.506,0
14775.431,-17240.057,-15116.909,-11631.065,-15757.466,-1272.619,-17242.158,-9114.192,-6745.399,0
14775.431,-17237.531,-15117.110,-11626.394,-15749.554,-1271.881,-17236.570,-9113.499,-6745.980,0
14775.431,-17235.855,-15110.964,-11625.567,-15745.329,-1271.658,-17236.279,-9121.390,-6753.513,0
14775.431,-17239.744,-15110.941,-11630.082,-15751.878,-1272.820,-17243.029,-9122.730,-6755.681,0
14775.431,-17243.119,-15116.887,-11633.479,-15759.701,-1273.133,-17248.148,-9115.578,-6753.870,0
14775.431,-17242.963,-15118.631,-11632.720,-15759.790,-1272.954,-17247.656,-9114.394,-6752.596,0
14775.431,-17239.588,-15110.249,-11628.986,-15751.989,-1273.088,-17240.168,-9116.964,-6750.942,0
14775.431,-17239.699,-15110.695,-11628.003,-15749.285,-1272.798,-17234.625,-9121.836,-6750.450,0
14775.432,-17241.219,-15110.808,-11632.094,-15755.052,-1273.066,-17237.912,-9118.372,-6751.568,0
14775.432,-17240.816,-15115.256,-11635.357,-15760.371,-1271.524,-17241.957,-9112.382,-6747.612,0
14775.491,-17235.184,-15110.517,-11632.406,-15759.299,-1272.820,-17243.990,-9117.656,-6748.685,0
14775.491,-17235.072,-15107.589,-11628.764,-15749.598,-1274.653,-17241.219,-9121.792,-6753.826,0
14775.491,-17240.146,-15118.921,-11628.674,-15746.558,-1273.066,-17238.201,-9118.841,-6751.412,0
14775.491,-17242.494,-15118.474,-11629.926,-15752.638,-1271.792,-17241.689,-9117.769,-6750.629,0
14775.491,-17246.316,-15120.665,-11632.809,-15760.818,-1273.178,-17248.887,-9118.216,-6754.720,0
14775.491,-17249.199,-15125.895,-11633.100,-15761.623,-1273.558,-17247.209,-9121.814,-6758.586,0
14775.491,-17247.881,-15132.779,-11627.735,-15751.878,-1272.731,-17239.723,-9123.445,-6758.698,0
14775.491,-17248.908,-15137.138,-11626.171,-15748.458,-1272.462,-17237.531,-9126.128,-6760.039,0
14775.491,-17252.596,-15133.494,-11629.546,-15754.113,-1273.401,-17243.342,-9125.814,-6759.950,0
14775.492,-17255.859,-15137.451,-11634.463,-15762.428,-1276.083,-17251.590,-9126.284,-6762.163,0
14775.492,-17258.676,-15146.257,-11635.066,-15763.680,-1277.201,-17253.400,-9124.966,-6763.616,0
14775.492,-17252.350,-15141.496,-11628.070,-15753.085,-1276.843,-17246.605,-9126.150,-6764.286,0
14775.492,-17245.869,-15130.656,-11623.958,-15746.715,-1275.256,-17245.064,-9128.006,-6766.968,0
14775.492,-17250.250,-15131.595,-11628.025,-15753.666,-1276.195,-17253.111,-9131.358,-6771.438,0
14775.492,-17255.457,-15140.424,-11632.340,-15761.892,-1276.687,-17257.246,-9129.503,-6769.159,0
14775.551,-17253.893,-15140.446,-11630.552,-15761.534,-1275.592,-17256.598,-9128.341,-6766.007,0
14775.551,-17251.791,-15136.758,-11625.947,-15754.202,-1275.368,-17249.422,-9130.151,-6764.890,0
14775.551,-17247.098,-15131.080,-11621.610,-15748.458,-1272.083,-17240.549,-9128.251,-6759.503,0
14775.551,-17249.199,-15137.630,-11624.002,-15754.157,-1272.507,-17243.230,-9127.916,-6759.480,0
14775.551,-17249.848,-15136.825,-11627.690,-15761.042,-1274.206,-17248.641,-9128.027,-6760.397,0
14775.551,-17247.164,-15133.562,-11627.467,-15761.153,-1275.435,-17249.131,-9128.475,-6762.498,0
14775.551,-17241.330,-15124.688,-11621.275,-15752.079,-1274.027,-17242.180,-9123.222,-6757.312,0
14775.552,-17238.648,-15121.201,-11618.012,-15746.826,-1271.837,-17238.537,-9120.786,-6756.217,0
14775.552,-17241.645,-15126.610,-11621.633,-15752.861,-1271.725,-17243.254,-9123.423,-6755.904,0
14775.552,-17246.584,-15133.159,-11623.600,-15759.231,-1269.043,-17247.119,-9119.668,-6752.887,0
14775.552,-17248.014,-15132.108,-11624.159,-15760.506,-1268.864,-17247.635,-9119.109,-6753.915,0
14775.552,-17242.047,-15125.291,-11618.146,-15751.855,-1269.110,-17241.957,-9119.937,-6753.490,0
14775.552,-17236.570,-15118.116,-11614.458,-15746.290,-1267.255,-17235.787,-9116.114,-6750.540,0
14775.552,-17237.465,-15121.201,-11617.677,-15752.549,-1267.925,-17239.162,-9114.550,-6749.646,0
14775.552,-17242.783,-15125.112,-11621.230,-15760.148,-1268.841,-17244.975,-9111.778,-6747.902,0
14775.611,-17244.506,-15128.264,-11624.248,-15761.713,-1271.948,-17247.545,-9111.935,-6749.601,0
14775.611,-17234.334,-15117.088,-11615.106,-15749.084,-1270.719,-17239.363,-9114.147,-6749.042,0
14775.611,-17230.781,-15113.825,-11610.771,-15743.854,-1272.127,-17237.531,-9120.607,-6752.551,0
14775.611,-17235.631,-15120.575,-11615.576,-15752.303,-1274.631,-17243.543,-9117.188,-6753.312,0
14775.611,-17239.141,-15127.795,-11618.348,-15759.008,-1273.200,-17247.232,-9111.107,-6748.104,0
14775.611,-17238.426,-15126.677,-11617.945,-15758.941,-1273.446,-17247.434,-9108.872,-6746.650,0
14775.612,-17233.240,-15122.386,-11614.548,-15751.609,-1273.669,-17242.404,-9109.990,-6747.902,0
14775.612,-17230.154,-15115.055,-11612.647,-15745.664,-1271.188,-17237.150,-9110.884,-6747.857,0
14775.612,-17236.189,-15119.167,-11620.225,-15752.728,-1269.937,-17239.922,-9111.801,-6748.327,0
14775.612,-17243.342,-15131.215,-11627.064,-15761.757,-1267.724,-17244.305,-9108.761,-6746.785,0
14775.612,-17246.920,-15137.294,-11627.981,-15763.434,-1265.891,-17242.672,-9108.246,-6745.555,0
14775.612,-17242.650,-15130.544,-11621.655,-15754.672,-1264.595,-17234.559,-9110.393,-6745.019,0
14775.612,-17240.123,-15126.409,-11619.241,-15748.347,-1263.119,-17229.953,-9113.521,-6744.549,0
14775.612,-17244.482,-15130.566,-11626.215,-15755.343,-1265.936,-17235.564,-9120.674,-6747.634,0
14775.612,-17247.746,-15131.640,-11628.629,-15763.434,-1268.037,-17242.828,-9120.004,-6746.114,0
14775.671,-17246.584,-15128.733,-11625.455,-15763.255,-1268.126,-17243.299,-9110.013,-6742.292,0
14775.672,-17239.141,-15118.943,-11618.280,-15752.459,-1268.551,-17238.156,-9108.582,-6742.426,0
14775.672,-17235.297,-15116.194,-11615.464,-15747.072,-1269.736,-17235.340,-9115.063,-6747.455,0
14775.672,-17235.385,-15120.419,-11617.453,-15751.274,-1269.847,-17237.195,-9111.600,-6744.326,0
14775.672,-17239.207,-15130.275,-11620.762,-15759.746,-1270.495,-17241.018,-9107.353,-6739.744,0
14775.672,-17236.078,-15120.553,-11617.699,-15759.746,-1270.898,-17240.035,-9105.899,-6736.928,0
14775.672,-17229.373,-15109.266,-11609.787,-15748.480,-1269.177,-17232.613,-9106.302,-6736.480,0
14775.672,-17225.887,-15107.365,-11608.334,-15743.585,-1269.266,-17229.551,-9109.699,-6740.124,0
14775.672,-17226.936,-15107.030,-11611.575,-15750.179,-1269.981,-17233.061,-9106.704,-6738.805,0
14775.672,-17231.184,-15115.055,-11615.464,-15758.449,-1269.065,-17238.559,-9102.547,-6735.050,0
14775.673,-17237.711,-15127.594,-11616.604,-15759.522,-1270.227,-17240.549,-9101.519,-6736.525,0
14775.673,-17235.006,-15124.665,-11612.357,-15750.201,-1271.300,-17235.117,-9103.083,-6737.196,0
14775.673,-17230.758,-15122.185,-11607.730,-15743.742,-1270.048,-17230.199,-9106.525,-6737.621,0
14775.673,-17233.508,-15127.013,-11609.787,-15748.458,-1270.071,-17233.574,-9109.118,-6738.626,0
14775.673,-17239.498,-15139.820,-11615.174,-15757.689,-1269.445,-17238.961,-9104.849,-6734.737,0
14775.730,-17239.990,-15145.766,-11616.425,-15759.344,-1269.847,-17239.252,-9101.496,-6733.105,0
14775.730,-17233.463,-15136.043,-11612.156,-15749.978,-1269.601,-17234.045,-9103.083,-6735.005,0
14775.730,-17229.596,-15124.956,-11610.233,-15744.658,-1269.937,-17231.562,-9105.386,-6738.090,0
14775.731,-17230.154,-15122.899,-11611.955,-15748.771,-1268.909,-17234.492,-9107.531,-6739.766,0
14775.731,-17234.760,-15134.143,-11616.827,-15756.571,-1270.004,-17242.516,-9109.252,-6743.275,0
14775.731,-17236.547,-15134.545,-11619.354,-15758.181,-1272.798,-17246.203,-9110.616,-6746.852,0
14775.731,-17233.688,-15131.394,-11614.011,-15749.732,-1273.625,-17240.191,-9109.677,-6745.980,0
14775.731,-17231.676,-15134.612,-11610.032,-15745.396,-1273.714,-17237.219,-9112.225,-6743.723,0
14775.731,-17232.971,-15134.791,-11612.894,-15751.564,-1273.088,-17242.180,-9112.113,-6745.578,0
14775.731,-17236.145,-15132.466,-11618.593,-15759.231,-1273.535,-17249.377,-9114.125,-6750.205,0
14775.731,-17232.682,-15127.013,-11618.012,-15757.577,-1272.619,-17249.311,-9117.411,-6750.786,0
14775.731,-17230.758,-15121.491,-11614.480,-15750.022,-1273.826,-17242.939,-9118.372,-6751.769,0
14775.731,-17231.049,-15127.303,-11611.888,-15744.390,-1272.395,-17239.543,-9116.405,-6753.021,0
14775.732,-17236.189,-15134.009,-11616.604,-15750.850,-1272.977,-17244.617,-9119.713,-6753.937,0
14775.732,-17237.934,-15133.227,-11620.023,-15758.248,-1271.904,-17247.924,-9115.980,-6751.009,0
14775.791,-17240.438,-15132.287,-11620.314,-15759.790,-1272.462,-17248.551,-9112.627,-6747.455,0
14775.791,-17239.633,-15132.689,-11617.252,-15752.750,-1272.083,-17242.158,-9113.209,-6745.600,0
14775.791,-17240.168,-15130.790,-11614.480,-15748.146,-1269.445,-17236.906,-9110.146,-6743.365,0
14775.791,-17244.750,-15132.913,-11619.018,-15754.783,-1268.841,-17237.754,-9110.169,-6742.806,0
14775.791,-17248.998,-15141.071,-11624.807,-15762.383,-1268.171,-17240.482,-9110.034,-6739.364,0
14775.791,-17250.338,-15143.955,-11626.573,-15763.456,-1269.043,-17243.857,-9115.622,-6742.046,0
14775.791,-17246.584,-15139.396,-11620.963,-15754.516,-1268.953,-17238.738,-9113.589,-6744.974,0
14775.791,-17242.180,-15136.690,-11613.162,-15747.832,-1266.383,-17233.016,-9105.341,-6745.108,0
14775.791,-17243.857,-15138.456,-11616.917,-15754.604,-1266.137,-17237.799,-9106.637,-6745.108,0
14775.791,-17246.762,-15136.780,-11621.566,-15763.567,-1266.092,-17243.611,-9103.284,-6743.208,0
14775.791,-17248.975,-15139.864,-11623.197,-15766.562,-1267.500,-17246.428,-9105.207,-6747.299,0
14775.791,-17246.650,-15147.129,-11617.229,-15758.114,-1265.802,-17239.275,-9104.402,-6746.405,0
14775.791,-17241.264,-15135.774,-11612.647,-15751.677,-1264.036,-17235.408,-9109.431,-6748.237,0
14775.791,-17239.654,-15128.645,-11617.744,-15757.734,-1265.600,-17241.152,-9112.113,-6749.892,0
14775.792,-17240.973,-15130.768,-11622.684,-15765.334,-1267.769,-17247.746,-9115.712,-6753.088,0
14775.851,-17240.727,-15132.712,-11622.236,-15765.893,-1267.612,-17248.773,-9116.204,-6753.826,0
14775.851,-17236.168,-15134.232,-11616.447,-15756.907,-1266.606,-17242.404,-9115.601,-6753.065,0
14775.851,-17231.117,-15134.232,-11612.826,-15750.090,-1266.696,-17238.045,-9114.975,-6753.445,0
14775.851,-17233.574,-15135.260,-11617.654,-15755.879,-1268.819,-17243.945,-9119.489,-6756.195,0
14775.851,-17236.816,-15137.205,-11620.471,-15762.227,-1267.947,-17248.395,-9116.159,-6752.462,0
14775.851,-17238.516,-15143.329,-11619.822,-15764.261,-1268.931,-17250.227,-9113.768,-6753.312,0
14775.851,-17235.766,-15145.721,-11613.788,-15755.924,-1270.339,-17246.359,-9117.656,-6757.022,0
14775.851,-17233.977,-15132.399,-11610.636,-15750.179,-1270.227,-17242.449,-9121.166,-6757.737,0
14775.851,-17236.682,-15134.456,-11614.659,-15756.125,-1268.596,-17245.152,-9119.623,-6755.233,0
14775.852,-17241.041,-15138.591,-11619.196,-15764.618,-1267.076,-17248.908,-9114.103,-6753.445,0
14775.852,-17245.398,-15142.703,-11622.191,-15768.753,-1267.076,-17249.131,-9112.784,-6751.993,0
14775.852,-17242.293,-15144.670,-11618.414,-15760.081,-1266.047,-17241.801,-9114.572,-6749.668,0
14775.852,-17240.771,-15144.201,-11615.330,-15754.560,-1266.986,-17237.688,-9116.248,-6750.607,0
14775.852,-17242.225,-15141.541,-11617.878,-15758.293,-1265.936,-17239.811,-9116.293,-6749.489,0
14775.852,-17245.266,-15146.347,-11621.768,-15766.160,-1266.115,-17245.846,-9114.572,-6752.104,0
14775.911,-17246.182,-15154.527,-11620.963,-15768.307,-1267.031,-17247.590,-9117.701,-6753.513,0
14775.911,-17243.365,-15143.485,-11617.297,-15761.713,-1267.053,-17241.420,-9120.406,-6754.854,0
14775.911,-17239.387,-15133.629,-11611.933,-15754.582,-1263.298,-17233.730,-9116.763,-6754.094,0
14775.911,-17243.029,-15135.193,-11614.704,-15760.617,-1263.522,-17236.033,-9115.802,-6752.663,0
14775.912,-17246.518,-15133.182,-11620.940,-15768.619,-1266.360,-17243.902,-9119.892,-6754.921,0
14775.912,-17244.146,-15131.550,-11618.929,-15767.792,-1266.271,-17245.689,-9118.372,-6753.893,0
14775.912,-17239.096,-15128.019,-11614.011,-15758.203,-1264.796,-17240.146,-9116.695,-6752.395,0
14775.912,-17237.219,-15129.538,-11613.050,-15751.989,-1264.036,-17234.850,-9118.126,-6751.657,0
14775.912,-17239.320,-15137.920,-11614.883,-15756.684,-1264.461,-17237.195,-9118.976,-6752.484,0
14775.912,-17243.701,-15145.698,-11617.587,-15764.238,-1266.003,-17244.170,-9116.808,-6752.708,0
14775.912,-17244.572,-15143.620,-11618.169,-15765.222,-1268.260,-17248.729,-9116.650,-6756.396,0
14775.912,-17242.002,-15137.384,-11614.324,-15757.667,-1269.490,-17244.951,-9117.478,-6757.804,0
14775.912,-17237.934,-15136.981,-11610.524,-15750.447,-1267.545,-17239.564,-9121.792,-6758.005,0
14775.913,-17241.822,-15140.088,-11613.989,-15754.984,-1267.456,-17244.080,-9123.445,-6758.854,0
14775.913,-17245.311,-15138.233,-11616.515,-15761.892,-1266.159,-17249.914,-9120.205,-6759.950,0
14775.972,-17246.316,-15139.016,-11617.900,-15766.496,-1268.059,-17253.133,-9118.573,-6757.647,0
14775.972,-17241.891,-15134.054,-11613.899,-15758.807,-1268.171,-17246.539,-9119.311,-6754.965,0
14775.972,-17239.766,-15131.237,-11613.653,-15752.728,-1268.618,-17241.086,-9123.804,-6757.894,0
14775.972,-17240.549,-15137.339,-11616.090,-15756.729,-1267.635,-17241.732,-9118.640,-6754.384,0
14775.972,-17242.359,-15137.250,-11619.867,-15763.858,-1265.958,-17245.533,-9116.829,-6750.808,0
14775.972,-17244.975,-15135.707,-11621.521,-15767.479,-1265.153,-17247.434,-9112.627,-6746.561,0
14775.972,-17242.494,-15133.227,-11617.565,-15760.528,-1263.835,-17242.158,-9108.806,-6746.136,0
14775.972,-17239.543,-15125.492,-11615.218,-15752.437,-1263.589,-17237.553,-9114.505,-6750.875,0
14775.972,-17243.230,-15132.511,-11618.571,-15757.466,-1264.684,-17241.531,-9120.428,-6754.339,0
14775.972,-17249.043,-15143.039,-11624.985,-15767.188,-1266.249,-17248.484,-9124.630,-6756.217,0
14775.972,-17252.283,-15151.532,-11627.802,-15769.134,-1266.383,-17250.205,-9125.301,-6755.413,0
14775.972,-17249.332,-15146.257,-11622.706,-15760.863,-1264.125,-17244.617,-9121.277,-6755.122,0
14775.973,-17247.119,-15141.720,-11619.331,-15754.538,-1261.957,-17239.363,-9118.596,-6753.848,0
14775.973,-17250.875,-15149.387,-11623.667,-15760.081,-1262.583,-17242.828,-9118.774,-6752.484,0
14775.973,-17254.697,-15153.164,-11628.294,-15768.619,-1264.148,-17248.082,-9117.254,-6752.216,0
14776.032,-17254.898,-15143.061,-11628.562,-15771.368,-1265.153,-17249.758,-9116.159,-6753.267,0
14776.032,-17251.076,-15135.282,-11622.773,-15762.942,-1264.908,-17244.125,-9118.237,-6752.417,0
14776.032,-17249.422,-15136.311,-11618.370,-15756.616,-1265.466,-17241.062,-9121.144,-6757.245,0
14776.032,-17252.328,-15142.145,-11622.035,-15761.937,-1265.667,-17243.744,-9120.875,-6758.117,0
14776.032,-17255.279,-15146.302,-11626.796,-15769.089,-1266.092,-17248.617,-9122.439,-6758.520,0
14776.032,-17254.406,-15147.442,-11625.276,-15770.631,-1266.584,-17250.607,-9119.869,-6756.396,0
14776.032,-17245.512,-15138.456,-11617.587,-15761.802,-1266.807,-17245.041,-9119.064,-6755.815,0
14776.032,-17238.717,-15129.226,-11613.386,-15754.247,-1265.600,-17238.582,-9121.255,-6756.083,0
14776.032,-17243.812,-15133.048,-11618.839,-15759.120,-1266.696,-17241.330,-9122.216,-6755.904,0
14776.032,-17248.193,-15136.624,-11623.712,-15767.055,-1267.255,-17246.338,-9120.830,-6753.468,0
14776.032,-17247.836,-15136.758,-11624.673,-15768.619,-1268.305,-17248.662,-9121.211,-6753.490,0
14776.033,-17244.506,-15134.925,-11621.164,-15760.438,-1267.567,-17244.125,-9121.568,-6754.317,0
14776.033,-17247.635,-15135.238,-11625.075,-15758.941,-1272.083,-17244.348,-9128.095,-6759.078,0
14776.033,-17255.592,-15141.340,-11634.352,-15768.731,-1276.799,-17251.277,-9135.225,-6760.978,0
14776.033,-17254.631,-15143.888,-11635.089,-15773.336,-1274.005,-17251.814,-9128.027,-6755.233,0
14776.092,-17249.848,-15141.742,-11631.558,-15770.407,-1268.216,-17246.941,-9114.035,-6746.181,0
14776.092,-17243.500,-15130.275,-11627.534,-15761.266,-1267.366,-17240.816,-9119.154,-6747.232,0
14776.092,-17239.252,-15123.503,-11623.197,-15754.225,-1266.539,-17235.541,-9122.730,-6750.540,0
14776.092,-17242.963,-15124.732,-11627.981,-15760.260,-1265.936,-17237.150,-9118.662,-6750.115,0
14776.092,-17248.975,-15131.706,-11634.888,-15768.552,-1267.232,-17243.455,-9120.294,-6751.814,0
14776.092,-17249.914,-15134.389,-11637.257,-15771.279,-1267.679,-17247.299,-9123.603,-6753.132,0
14776.093,-17241.576,-15127.750,-11631.178,-15763.300,-1267.344,-17241.777,-9122.015,-6754.608,0
14776.093,-17236.637,-15121.022,-11627.355,-15755.901,-1266.383,-17235.943,-9120.853,-6754.027,0
14776.093,-17238.225,-15117.513,-11631.981,-15759.880,-1267.143,-17237.598,-9123.938,-6753.758,0
14776.093,-17239.498,-15117.424,-11635.491,-15767.055,-1268.350,-17244.236,-9125.547,-6757.044,0
14776.093,-17238.225,-15121.268,-11633.726,-15768.798,-1267.769,-17247.188,-9122.328,-6756.977,0
14776.093,-17233.775,-15123.101,-11629.456,-15761.064,-1267.389,-17239.678,-9129.033,-6753.803,0
14776.093,-17227.004,-15111.724,-11624.740,-15752.816,-1267.433,-17234.402,-9134.107,-6756.508,0
14776.093,-17223.428,-15108.773,-11624.449,-15755.230,-1267.545,-17238.760,-9132.364,-6760.933,0
14776.093,-17225.908,-15113.825,-11628.115,-15762.629,-1266.964,-17244.572,-9132.297,-6760.598,0
14776.151,-17229.797,-15115.546,-11626.685,-15765.289,-1266.226,-17246.920,-9131.045,-6760.128,0
14776.152,-17227.986,-15108.796,-11622.393,-15759.455,-1267.277,-17243.074,-9130.866,-6762.610,0
14776.152,-17225.572,-15108.014,-11618.571,-15753.554,-1267.478,-17238.426,-9130.375,-6763.012,0
14776.152,-17228.256,-15111.276,-11620.314,-15758.628,-1267.232,-17240.549,-9127.469,-6758.430,0
14776.152,-17235.229,-15112.819,-11625.321,-15768.016,-1266.696,-17244.416,-9124.474,-6753.513,0
14776.152,-17237.531,-15115.702,-11628.853,-15772.419,-1268.193,-17247.254,-9123.781,-6753.378,0
14776.152,-17231.430,-15109.913,-11623.533,-15763.031,-1267.143,-17240.213,-9121.568,-6751.255,0
14776.152,-17228.434,-15109.042,-11617.565,-15755.767,-1265.198,-17233.553,-9121.188,-6750.406,0
14776.152,-17231.004,-15112.729,-11619.264,-15760.371,-1265.578,-17234.670,-9121.144,-6746.896,0
14776.152,-17237.420,-15125.582,-11624.002,-15769.469,-1268.126,-17239.564,-9121.948,-6741.040,0
14776.152,-17240.705,-15129.113,-11625.455,-15772.396,-1268.707,-17239.162,-9111.062,-6733.955,0
14776.152,-17235.699,-15119.994,-11620.471,-15764.395,-1266.673,-17232.367,-9101.608,-6733.597,0
14776.152,-17231.250,-15113.557,-11616.045,-15757.063,-1264.259,-17226.824,-9102.994,-6734.603,0
14776.153,-17234.178,-15112.261,-11619.420,-15760.192,-1263.634,-17228.479,-9108.783,-6736.078,0
14776.153,-17240.348,-15115.256,-11627.981,-15769.401,-1265.578,-17235.631,-9115.913,-6738.828,0
14776.211,-17242.717,-15114.920,-11630.328,-15772.441,-1266.249,-17239.275,-9118.015,-6740.884,0
14776.211,-17242.158,-15112.216,-11626.171,-15764.932,-1265.019,-17235.408,-9115.958,-6746.204,0
14776.211,-17237.598,-15109.198,-11620.604,-15755.968,-1262.695,-17230.043,-9118.729,-6749.690,0
14776.211,-17238.314,-15113.267,-11622.482,-15759.925,-1261.354,-17231.295,-9116.763,-6743.790,0
14776.211,-17240.816,-15121.536,-11627.579,-15768.999,-1263.343,-17239.723,-9117.411,-6745.935,0
14776.212,-17245.109,-15127.840,-11629.657,-15772.308,-1263.745,-17243.857,-9121.456,-6750.607,0
14776.212,-17245.846,-15137.228,-11626.863,-15764.171,-1262.784,-17239.363,-9126.978,-6754.116,0
14776.212,-17242.113,-15136.400,-11622.482,-15756.795,-1262.695,-17235.072,-9128.452,-6757.625,0
14776.212,-17244.594,-15127.504,-11622.952,-15760.818,-1261.063,-17237.621,-9116.763,-6757.804,0
14776.212,-17245.914,-15123.279,-11625.724,-15767.948,-1259.454,-17239.766,-9114.394,-6755.457,0
14776.212,-17248.930,-15131.595,-11626.796,-15772.509,-1260.348,-17243.744,-9116.517,-6753.781,0
14776.212,-17249.848,-15140.870,-11621.700,-15765.624,-1258.336,-17238.201,-9113.611,-6749.064,0
14776.212,-17247.164,-15146.905,-11617.229,-15758.807,-1258.940,-17233.619,-9115.511,-6750.696,0
14776.212,-17252.172,-15151.778,-11621.208,-15763.590,-1260.080,-17236.459,-9115.176,-6748.886,0
14776.212,-17256.709,-15138.099,-11627.467,-15771.547,-1260.415,-17241.219,-9112.471,-6745.354,0
14776.272,-17256.688,-15141.317,-11628.093,-15774.342,-1261.622,-17242.738,-9113.924,-6745.242,0
14776.272,-17252.998,-15158.819,-11622.415,-15766.720,-1262.203,-17238.381,-9115.645,-6747.567,0
14776.272,-17255.412,-15180.366,-11620.918,-15761.980,-1263.566,-17236.436,-9119.981,-6752.283,0
14776.272,-17257.045,-15152.896,-11623.265,-15764.127,-1263.075,-17240.213,-9121.858,-6752.507,0
14776.272,-17255.436,-15138.501,-11626.796,-15770.520,-1262.359,-17244.236,-9118.931,-6749.713,0
14776.272,-17255.971,-15145.452,-11625.455,-15773.537,-1261.398,-17246.518,-9120.316,-6751.903,0
14776.273,-17255.637,-15149.364,-11621.655,-15767.100,-1261.041,-17242.828,-9123.244,-6752.439,0
14776.273,-17254.809,-15148.492,-11618.414,-15760.371,-1261.287,-17239.320,-9121.546,-6754.742,0
14776.273,-17257.938,-15147.665,-11621.544,-15765.177,-1261.398,-17242.605,-9121.702,-6755.614,0
14776.273,-17262.387,-15154.014,-11626.685,-15773.671,-1261.689,-17249.221,-9120.764,-6754.519,0
14776.273,-17261.068,-15153.901,-11627.355,-15774.855,-1262.807,-17251.770,-9120.004,-6755.413,0
14776.273,-17252.596,-15148.828,-11619.196,-15764.998,-1261.309,-17245.914,-9119.400,-6754.854,0
14776.274,-17248.930,-15141.161,-11616.000,-15758.449,-1262.650,-17242.381,-9122.238,-6753.513,0
14776.274,-17249.377,-15140.893,-11619.219,-15762.808,-1263.410,-17246.025,-9125.748,-6757.245,0
14776.274,-17250.697,-15141.832,-11621.856,-15770.385,-1264.393,-17252.105,-9127.737,-6759.972,0
14776.332,-17251.344,-15148.984,-11620.694,-15773.336,-1264.461,-17254.562,-9130.419,-6759.905,0
14776.332,-17247.902,-15151.733,-11616.537,-15766.562,-1262.874,-17248.439,-9127.647,-6757.022,0
14776.332,-17244.146,-15149.252,-11613.229,-15759.433,-1261.287,-17241.957,-9120.004,-6753.312,0
14776.332,-17244.729,-15147.263,-11616.336,-15763.322,-1261.152,-17243.543,-9116.472,-6750.406,0
