timestamps,Fz,F3,C4,Cz,Pz,P3,O2,O1,Marker
14946.499,-17114.016,-14934.810,-11763.880,-15870.432,-696.190,-17067.793,-9220.117,-6656.998,0
14946.499,-17116.385,-14936.240,-11768.641,-15877.674,-698.291,-17072.463,-9219.580,-6652.371,0
14946.500,-17112.719,-14930.786,-11765.377,-15873.918,-698.984,-17069.848,-9217.658,-6653.198,0
14946.500,-17103.176,-14918.582,-11755.922,-15860.664,-695.877,-17060.662,-9216.765,-6651.075,0
14946.500,-17099.129,-14913.665,-11756.213,-15858.987,-697.598,-17061.266,-9227.604,-6653.287,0
14946.500,-17100.850,-14916.593,-11760.348,-15866.341,-701.085,-17069.424,-9218.642,-6656.439,0
14946.500,-17100.783,-14915.722,-11761.577,-15872.287,-703.029,-17075.816,-9209.545,-6659.121,0
14946.501,-17093.094,-14908.927,-11754.626,-15865.201,-702.761,-17072.553,-9216.585,-6655.634,0
14946.501,-17084.355,-14900.812,-11745.887,-15852.685,-703.387,-17068.283,-9218.530,-6662.765,0
14946.501,-17083.395,-14898.622,-11747.540,-15851.455,-705.443,-17069.514,-9215.759,-6669.135,0
14946.501,-17084.266,-14901.483,-11753.017,-15858.316,-706.583,-17076.375,-9221.033,-6672.130,0
14946.501,-17085.473,-14905.730,-11757.442,-15865.916,-708.506,-17083.215,-9225.615,-6676.086,0
14946.501,-17085.115,-14904.903,-11756.437,-15863.524,-709.310,-17081.404,-9227.180,-6667.011,0
14946.502,-17080.176,-14899.338,-11750.223,-15851.790,-707.969,-17074.453,-9226.890,-6664.665,0
14946.502,-17079.348,-14899.807,-11749.798,-15850.203,-706.919,-17072.910,-9229.751,-6666.654,0
14946.560,-17083.773,-14908.435,-11754.760,-15858.429,-707.142,-17077.963,-9230.488,-6665.290,0
14946.560,-17086.770,-14911.318,-11758.247,-15864.307,-707.522,-17082.410,-9234.779,-6668.911,0
14946.560,-17088.512,-14912.950,-11755.252,-15862.161,-704.795,-17078.811,-9218.820,-6661.602,0
14946.560,-17081.539,-14902.959,-11747.004,-15851.098,-702.001,-17069.961,-9218.798,-6666.788,0
14946.560,-17080.219,-14900.075,-11748.523,-15850.940,-701.197,-17068.887,-9221.614,-6663.815,0
14946.560,-17084.355,-14902.154,-11756.660,-15860.172,-702.985,-17075.436,-9226.777,-6665.514,0
14946.560,-17083.014,-14899.315,-11758.604,-15864.799,-702.381,-17078.207,-9226.555,-6666.833,0
14946.561,-17076.643,-14893.615,-11752.413,-15858.876,-699.923,-17074.453,-9226.062,-6666.899,0
14946.561,-17068.484,-14886.485,-11744.434,-15847.655,-699.744,-17067.547,-9228.678,-6668.554,0
14946.561,-17068.730,-14886.664,-11745.327,-15847.588,-699.990,-17067.367,-9227.068,-6668.129,0
14946.561,-17074.877,-14894.152,-11750.245,-15856.819,-702.202,-17076.441,-9229.013,-6670.409,0
14946.561,-17076.822,-14898.131,-11752.793,-15863.167,-702.560,-17081.896,-9227.783,-6672.152,0
14946.561,-17075.883,-14900.746,-11751.854,-15861.491,-705.041,-17082.164,-9230.488,-6677.338,0
14946.561,-17072.016,-14894.935,-11745.372,-15849.823,-703.387,-17073.246,-9232.634,-6675.594,0
14946.561,-17076.062,-14896.007,-11750.982,-15852.282,-706.427,-17075.594,-9245.151,-6681.540,0
14946.620,-17080.242,-14899.137,-11759.342,-15860.552,-708.304,-17083.125,-9245.889,-6681.741,0
14946.620,-17082.701,-14901.617,-11763.478,-15866.811,-709.087,-17090.189,-9243.407,-6683.708,0
14946.621,-17079.504,-14900.433,-11760.951,-15863.122,-710.830,-17089.406,-9250.538,-6688.022,0
14946.621,-17073.135,-14894.286,-11753.263,-15851.209,-709.556,-17081.494,-9254.896,-6692.582,0
14946.621,-17072.955,-14893.079,-11754.380,-15851.119,-708.617,-17080.846,-9256.863,-6698.795,0
14946.621,-17076.867,-14897.415,-11759.432,-15859.211,-708.349,-17086.143,-9251.208,-6697.812,0
14946.621,-17081.293,-14904.076,-11763.187,-15865.895,-709.020,-17092.715,-9245.732,-6697.611,0
14946.621,-17078.789,-14903.741,-11759.387,-15862.362,-709.578,-17091.418,-9251.320,-6701.701,0
14946.622,-17070.943,-14894.711,-11750.558,-15849.778,-705.868,-17079.236,-9246.515,-6687.061,0
14946.622,-17067.926,-14891.716,-11748.971,-15847.990,-704.996,-17076.756,-9247.297,-6684.826,0
14946.622,-17073.268,-14900.500,-11755.386,-15857.468,-707.366,-17084.086,-9246.470,-6683.552,0
14946.622,-17073.850,-14899.807,-11758.738,-15863.413,-710.607,-17090.391,-9254.985,-6690.190,0
14946.622,-17071.859,-14896.700,-11755.788,-15860.351,-710.629,-17087.953,-9248.437,-6682.948,0
14946.622,-17062.473,-14888.229,-11746.780,-15849.197,-708.819,-17078.521,-9253.086,-6675.662,0
14946.623,-17059.188,-14882.932,-11744.076,-15846.738,-705.980,-17076.152,-9242.804,-6680.042,0
14946.680,-17064.193,-14886.352,-11749.709,-15855.858,-706.002,-17082.188,-9239.406,-6680.176,0
14946.680,-17070.451,-14891.693,-11754.805,-15864.352,-707.969,-17087.238,-9235.473,-6680.199,0
14946.681,-17070.564,-14887.849,-11752.905,-15860.843,-707.969,-17084.422,-9237.060,-6680.355,0
14946.681,-17064.641,-14879.243,-11745.641,-15849.376,-704.505,-17074.252,-9238.468,-6674.097,0
14946.681,-17062.607,-14877.433,-11745.819,-15848.438,-702.761,-17072.754,-9233.260,-6673.963,0
14946.681,-17066.764,-14883.558,-11752.122,-15856.573,-701.867,-17077.447,-9230.287,-6672.577,0
14946.681,-17069.535,-14888.967,-11754.716,-15863.413,-703.566,-17083.236,-9231.226,-6675.371,0
14946.682,-17066.562,-14889.749,-11751.698,-15859.702,-705.734,-17083.885,-9239.026,-6681.808,0
14946.682,-17062.383,-14885.726,-11745.641,-15848.526,-706.069,-17078.855,-9242.715,-6685.742,0
14946.682,-17062.740,-14885.010,-11743.920,-15846.694,-705.488,-17080.107,-9240.636,-6688.044,0
14946.682,-17066.719,-14891.112,-11748.658,-15854.830,-705.935,-17086.590,-9245.732,-6687.463,0
14946.682,-17070.564,-14895.672,-11753.150,-15862.229,-708.014,-17092.760,-9250.023,-6692.805,0
14946.683,-17069.715,-14893.459,-11750.960,-15859.948,-708.908,-17091.686,-9246.760,-6698.617,0
14946.683,-17064.014,-14887.357,-11742.422,-15847.700,-704.460,-17083.236,-9237.060,-6697.723,0
14946.683,-17067.479,-14890.106,-11745.148,-15848.526,-705.443,-17083.080,-9247.855,-6682.546,0
14946.739,-17073.469,-14896.633,-11751.251,-15856.618,-705.466,-17086.143,-9242.268,-6672.063,0
14946.740,-17075.727,-14901.528,-11755.900,-15862.116,-705.890,-17090.793,-9238.557,-6677.941,0
14946.740,-17074.945,-14902.601,-11754.983,-15859.725,-707.455,-17090.166,-9235.719,-6682.255,0
14946.740,-17069.244,-14894.264,-11747.854,-15847.990,-705.689,-17081.672,-9233.327,-6685.608,0
14946.740,-17072.016,-14894.465,-11750.133,-15847.968,-703.923,-17078.365,-9239.071,-6677.137,0
14946.740,-17077.783,-14900.857,-11754.938,-15857.289,-702.404,-17083.148,-9239.742,-6677.695,0
14946.740,-17085.562,-14909.038,-11761.511,-15866.743,-704.125,-17088.535,-9237.037,-6680.557,0
14946.740,-17085.875,-14909.194,-11760.348,-15863.279,-703.789,-17084.623,-9241.530,-6682.255,0
14946.740,-17083.818,-14903.160,-11755.476,-15854.562,-702.091,-17076.643,-9244.101,-6681.540,0
14946.740,-17083.371,-14903.741,-11753.173,-15853.556,-700.191,-17074.543,-9238.133,-6678.902,0
14946.740,-17086.479,-14908.412,-11757.151,-15861.849,-700.526,-17081.248,-9241.083,-6680.869,0
14946.740,-17086.500,-14909.128,-11759.678,-15866.341,-701.979,-17086.500,-9244.950,-6685.943,0
14946.741,-17081.270,-14904.367,-11755.564,-15860.262,-701.442,-17083.551,-9242.155,-6685.519,0
14946.741,-17071.436,-14892.028,-11747.295,-15847.208,-699.587,-17074.051,-9243.251,-6682.702,0
14946.741,-17070.340,-14888.520,-11747.652,-15846.604,-700.481,-17073.447,-9241.933,-6682.479,0
14946.799,-17074.252,-14890.375,-11754.425,-15856.797,-703.879,-17080.578,-9244.883,-6682.434,0
14946.800,-17075.883,-14891.827,-11757.085,-15862.631,-706.539,-17085.920,-9246.693,-6680.132,0
14946.800,-17074.945,-14892.028,-11753.441,-15859.100,-707.790,-17083.371,-9239.675,-6674.991,0
14946.800,-17067.256,-14882.104,-11746.043,-15847.208,-705.309,-17074.588,-9230.488,-6672.309,0
14946.800,-17064.596,-14880.025,-11746.423,-15846.336,-706.628,-17074.207,-9243.810,-6678.388,0
14946.801,-17064.908,-14880.719,-11750.021,-15854.338,-708.349,-17080.689,-9253.667,-6682.345,0
14946.801,-17066.473,-14883.759,-11752.972,-15861.245,-709.668,-17087.617,-9238.400,-6681.451,0
14946.801,-17061.199,-14880.249,-11746.959,-15855.791,-708.751,-17084.600,-9230.086,-6678.634,0
14946.801,-17051.744,-14870.459,-11738.376,-15844.213,-708.684,-17077.738,-9236.992,-6685.630,0
14946.801,-17051.990,-14869.186,-11739.718,-15843.855,-708.930,-17077.203,-9239.585,-6688.961,0
14946.802,-17061.199,-14879.198,-11748.390,-15851.634,-707.969,-17082.746,-9238.400,-6680.914,0
14946.802,-17067.658,-14885.972,-11755.028,-15859.613,-710.160,-17088.848,-9244.167,-6676.310,0
14946.802,-17065.781,-14885.837,-11751.563,-15856.238,-709.444,-17086.611,-9244.815,-6682.523,0
14946.802,-17060.395,-14882.373,-11744.344,-15845.420,-705.242,-17077.045,-9236.009,-6678.008,0
14946.802,-17062.004,-14884.161,-11745.238,-15846.112,-703.611,-17074.744,-9237.730,-6674.030,0
14946.860,-17072.979,-14895.806,-11752.234,-15857.199,-702.515,-17081.002,-9231.293,-6671.504,0
14946.860,-17082.924,-14906.356,-11757.732,-15866.185,-703.141,-17086.992,-9231.159,-6673.694,0
14946.860,-17083.215,-14906.312,-11756.012,-15863.122,-703.923,-17085.203,-9234.489,-6673.806,0
14946.860,-17074.318,-14897.438,-11748.435,-15850.717,-699.520,-17074.186,-9234.311,-6671.079,0
14946.860,-17076.844,-14901.148,-11750.558,-15851.410,-697.911,-17073.268,-9239.183,-6677.114,0
14946.861,-17085.092,-14909.865,-11756.771,-15860.061,-697.509,-17080.041,-9240.188,-6682.188,0
14946.861,-17088.959,-14914.447,-11761.689,-15867.749,-699.431,-17087.328,-9242.536,-6683.619,0
14946.861,-17086.232,-14913.509,-11759.186,-15863.458,-699.565,-17085.025,-9247.006,-6684.446,0
14946.861,-17080.867,-14907.250,-11751.921,-15851.455,-697.084,-17074.811,-9239.562,-6678.120,0
14946.861,-17079.281,-14906.199,-11751.698,-15849.778,-696.927,-17072.531,-9235.942,-6677.249,0
14946.861,-17084.064,-14911.229,-11757.845,-15859.770,-700.727,-17079.459,-9237.573,-6679.394,0
14946.862,-17086.434,-14914.671,-11760.728,-15866.096,-704.058,-17085.271,-9238.893,-6680.869,0
14946.862,-17080.443,-14908.770,-11754.447,-15859.211,-703.789,-17081.963,-9240.032,-6680.579,0
14946.862,-17070.117,-14895.403,-11745.082,-15845.845,-702.761,-17074.430,-9241.150,-6682.345,0
14946.862,-17067.367,-14891.447,-11744.836,-15843.833,-702.873,-17074.654,-9242.871,-6684.759,0
14946.920,-17073.223,-14898.153,-11751.340,-15854.606,-706.405,-17083.059,-9245.710,-6684.781,0
14946.920,-17074.430,-14898.153,-11753.352,-15860.440,-709.422,-17088.803,-9251.789,-6687.798,0
14946.920,-17068.553,-14889.525,-11748.658,-15855.702,-708.483,-17084.533,-9250.247,-6685.094,0
14946.920,-17062.293,-14881.434,-11740.946,-15844.280,-707.410,-17077.828,-9250.471,-6689.028,0
14946.920,-17063.812,-14882.193,-11740.902,-15844.771,-706.695,-17078.051,-9245.263,-6691.173,0
14946.920,-17071.838,-14891.872,-11746.758,-15855.076,-706.673,-17084.936,-9236.345,-6695.375,0
14946.920,-17076.576,-14899.271,-11752.033,-15861.759,-707.679,-17089.115,-9236.657,-6684.602,0
14946.920,-17074.877,-14897.684,-11750.960,-15859.322,-708.595,-17086.725,-9240.814,-6672.644,0
14946.921,-17067.658,-14887.089,-11742.757,-15847.767,-706.762,-17079.281,-9243.229,-6677.494,0
14946.921,-17067.523,-14887.536,-11741.170,-15846.515,-706.069,-17079.170,-9236.680,-6679.864,0
14946.921,-17073.180,-14894.733,-11747.675,-15856.707,-707.857,-17086.232,-9233.595,-6679.640,0
14946.921,-17075.795,-14897.259,-11751.385,-15863.167,-705.846,-17088.824,-9232.701,-6681.629,0
14946.921,-17073.291,-14895.984,-11748.971,-15859.613,-704.058,-17085.316,-9235.518,-6684.781,0
14946.921,-17068.955,-14888.877,-11744.143,-15849.957,-703.052,-17077.447,-9243.452,-6684.110,0
14946.921,-17070.250,-14889.234,-11746.825,-15850.538,-700.258,-17075.102,-9242.804,-6678.835,0
14946.980,-17074.453,-14893.906,-11753.150,-15859.032,-699.252,-17081.068,-9239.139,-6684.781,0
14946.980,-17078.320,-14896.789,-11758.962,-15866.229,-701.644,-17086.500,-9246.067,-6686.301,0
14946.980,-17077.828,-14897.684,-11756.123,-15862.296,-701.331,-17082.812,-9245.934,-6683.417,0
14946.981,-17069.961,-14890.441,-11746.177,-15848.370,-700.258,-17075.303,-9248.816,-6685.787,0
14946.981,-17071.570,-14892.722,-11744.881,-15848.526,-699.632,-17074.922,-9242.312,-6682.881,0
14946.981,-17079.236,-14900.634,-11752.592,-15859.770,-701.219,-17082.834,-9237.641,-6683.529,0
14946.981,-17081.203,-14902.646,-11757.174,-15865.626,-701.800,-17087.283,-9241.373,-6683.529,0
14946.981,-17078.900,-14901.595,-11752.637,-15860.843,-700.906,-17082.812,-9239.786,-6681.250,0
14946.982,-17075.816,-14899.852,-11746.735,-15851.634,-702.046,-17077.203,-9245.039,-6683.686,0
14946.982,-17078.207,-14901.171,-11747.451,-15851.521,-702.359,-17077.336,-9243.832,-6686.100,0
14946.982,-17082.947,-14902.802,-11751.810,-15859.725,-702.091,-17081.785,-9238.043,-6683.842,0
14946.982,-17087.484,-14908.569,-11756.213,-15867.525,-703.991,-17086.635,-9238.312,-6681.987,0
14946.982,-17082.834,-14906.244,-11751.810,-15862.407,-704.818,-17084.221,-9242.379,-6679.350,0
14946.983,-17075.146,-14897.661,-11743.518,-15850.985,-704.058,-17076.844,-9242.647,-6679.953,0
14946.983,-17074.877,-14895.516,-11743.159,-15849.600,-703.164,-17077.068,-9236.612,-6683.216,0
14946.983,-17077.895,-14899.271,-11748.278,-15857.691,-704.996,-17085.361,-9237.328,-6687.329,0
14947.041,-17078.990,-14902.980,-11750.446,-15863.748,-706.114,-17090.680,-9239.965,-6683.395,0
14947.042,-17074.096,-14900.209,-11746.893,-15859.211,-705.734,-17088.266,-9239.898,-6680.534,0
14947.042,-17068.709,-14895.403,-11739.739,-15847.879,-703.164,-17078.521,-9239.809,-6676.689,0
14947.042,-17070.318,-14897.482,-11739.807,-15847.454,-703.231,-17078.119,-9243.027,-6675.214,0
14947.042,-17074.498,-14899.315,-11744.523,-15855.411,-701.308,-17083.596,-9234.311,-6672.555,0
14947.043,-17079.594,-14904.971,-11747.764,-15863.122,-702.024,-17092.133,-9224.900,-6680.132,0
14947.043,-17079.213,-14905.730,-11746.825,-15860.262,-702.314,-17091.619,-9221.056,-6679.104,0
14947.043,-17073.625,-14900.231,-11742.153,-15848.929,-702.940,-17086.031,-9232.276,-6683.753,0
14947.043,-17073.424,-14899.605,-11743.316,-15847.700,-704.125,-17087.484,-9237.842,-6694.213,0
14947.043,-17079.482,-14906.021,-11750.245,-15857.043,-703.834,-17091.842,-9240.367,-6682.009,0
14947.043,-17085.605,-14911.766,-11755.207,-15865.291,-703.991,-17096.469,-9239.384,-6680.512,0
14947.044,-17085.473,-14910.580,-11756.102,-15863.972,-704.013,-17094.973,-9241.396,-6677.628,0
14947.044,-17077.672,-14899.829,-11750.535,-15852.483,-701.398,-17086.277,-9243.922,-6677.002,0
14947.044,-17074.877,-14896.074,-11749.843,-15850.650,-699.431,-17084.623,-9228.678,-6681.316,0
14947.044,-17081.068,-14900.947,-11756.749,-15861.155,-699.878,-17089.496,-9229.795,-6679.394,0
14947.101,-17085.986,-14906.960,-11761.152,-15868.286,-700.615,-17092.982,-9236.076,-6677.718,0
14947.101,-17080.980,-14906.960,-11755.833,-15862.653,-700.280,-17088.512,-9234.980,-6676.511,0
14947.101,-17071.637,-14897.527,-11747.876,-15849.711,-699.632,-17078.723,-9243.542,-6672.375,0
14947.101,-17070.967,-14894.800,-11749.642,-15849.107,-700.034,-17078.945,-9239.384,-6678.902,0
14947.101,-17079.951,-14903.741,-11756.437,-15859.412,-700.884,-17086.121,-9227.247,-6677.114,0
14947.101,-17087.529,-14912.771,-11761.577,-15867.481,-701.286,-17090.277,-9218.508,-6668.777,0
14947.101,-17082.545,-14907.384,-11757.018,-15861.938,-700.481,-17085.920,-9226.576,-6668.218,0
14947.101,-17072.865,-14897.415,-11749.642,-15850.538,-699.252,-17078.879,-9229.415,-6671.057,0
14947.101,-17071.010,-14895.448,-11748.323,-15847.856,-695.966,-17073.693,-9221.928,-6663.033,0
14947.102,-17078.320,-14904.099,-11753.530,-15858.049,-697.509,-17080.666,-9220.564,-6667.414,0
14947.102,-17081.002,-14907.943,-11755.967,-15865.402,-698.805,-17086.143,-9221.883,-6670.118,0
14947.102,-17077.537,-14902.221,-11753.731,-15862.631,-701.532,-17083.639,-9228.052,-6665.804,0
14947.102,-17066.830,-14885.681,-11744.858,-15850.650,-700.146,-17073.424,-9222.531,-6659.725,0
14947.102,-17065.557,-14885.927,-11741.952,-15848.772,-697.017,-17069.781,-9215.244,-6655.970,0
14947.102,-17079.527,-14904.926,-11750.312,-15860.038,-697.978,-17078.230,-9221.815,-6664.329,0
14947.161,-17085.227,-14912.279,-11753.263,-15865.737,-697.978,-17083.461,-9222.240,-6666.877,0
14947.161,-17081.426,-14910.982,-11750.021,-15862.943,-699.230,-17083.998,-9221.905,-6670.610,0
14947.161,-17074.922,-14905.730,-11743.674,-15853.623,-700.101,-17079.885,-9227.180,-6676.064,0
14947.161,-17075.258,-14906.155,-11743.606,-15852.617,-698.246,-17078.006,-9229.817,-6669.716,0
14947.161,-17082.902,-14916.325,-11749.328,-15860.798,-697.307,-17084.645,-9231.472,-6672.264,0
14947.161,-17089.830,-14923.701,-11753.017,-15869.202,-697.687,-17091.396,-9223.537,-6673.292,0
14947.161,-17086.479,-14921.757,-11746.646,-15864.419,-695.720,-17087.730,-9216.004,-6669.358,0
14947.161,-17077.762,-14910.760,-11737.817,-15851.098,-692.681,-17077.492,-9216.183,-6665.246,0
14947.161,-17078.051,-14908.122,-11738.152,-15850.113,-693.776,-17076.756,-9219.781,-6666.162,0
14947.162,-17084.377,-14916.816,-11742.512,-15860.104,-695.720,-17082.008,-9220.966,-6668.822,0
14947.162,-17085.674,-14922.829,-11744.300,-15866.006,-697.665,-17087.193,-9222.821,-6672.979,0
14947.162,-17081.516,-14922.517,-11741.104,-15860.977,-700.079,-17085.920,-9225.995,-6671.750,0
14947.162,-17074.186,-14914.402,-11734.040,-15849.689,-699.543,-17079.729,-9223.537,-6674.320,0
14947.162,-17073.760,-14911.832,-11734.420,-15848.795,-697.576,-17077.002,-9218.530,-6667.727,0
14947.162,-17079.951,-14918.918,-11741.572,-15858.652,-698.872,-17082.947,-9222.062,-6668.017,0
14947.221,-17081.963,-14921.131,-11745.686,-15865.380,-699.140,-17085.875,-9219.961,-6661.267,0
14947.221,-17079.773,-14922.852,-11742.266,-15861.647,-699.140,-17082.477,-9216.943,-6658.361,0
14947.221,-17074.252,-14919.230,-11735.314,-15850.337,-697.039,-17074.699,-9213.970,-6658.115,0
14947.221,-17073.514,-14916.683,-11736.610,-15849.667,-697.732,-17075.594,-9218.172,-6670.811,0
14947.221,-17077.963,-14916.414,-11741.662,-15858.898,-699.878,-17082.143,-9222.308,-6676.645,0
14947.221,-17079.348,-14914.872,-11744.657,-15864.017,-698.157,-17084.914,-9221.056,-6669.805,0
14947.221,-17076.666,-14913.218,-11743.428,-15859.882,-697.732,-17083.236,-9223.246,-6663.413,0
14947.222,-17069.691,-14907.317,-11734.644,-15848.996,-697.374,-17077.672,-9222.419,-6662.116,0
14947.222,-17068.061,-14903.897,-11732.766,-15847.744,-697.956,-17077.984,-9225.325,-6665.402,0
14947.222,-17072.619,-14911.430,-11736.834,-15854.897,-698.648,-17084.266,-9223.269,-6669.582,0
14947.222,-17074.654,-14918.247,-11740.611,-15861.044,-702.091,-17091.641,-9222.665,-6671.683,0
14947.222,-17069.938,-14915.476,-11738.443,-15857.043,-703.789,-17091.373,-9226.845,-6670.073,0
14947.222,-17062.361,-14908.256,-11730.330,-15845.911,-702.001,-17084.199,-9218.999,-6675.997,0
14947.222,-17059.432,-14900.187,-11729.637,-15844.123,-701.130,-17082.143,-9221.815,-6671.794,0
14947.222,-17065.602,-14905.954,-11735.738,-15853.668,-704.885,-17091.418,-9227.068,-6673.493,0
14947.281,-17072.174,-14910.982,-11741.081,-15862.385,-706.248,-17098.033,-9215.714,-6674.231,0
14947.281,-17070.162,-14907.250,-11739.069,-15858.540,-705.332,-17094.525,-9213.770,-6673.314,0
14947.281,-17063.857,-14901.773,-11732.632,-15847.141,-703.789,-17084.801,-9219.670,-6669.895,0
14947.281,-17063.926,-14901.752,-11732.386,-15845.777,-701.353,-17083.236,-9220.854,-6673.806,0
14947.281,-17070.340,-14910.781,-11739.739,-15855.255,-700.057,-17088.355,-9218.284,-6671.258,0
14947.281,-17075.234,-14915.476,-11746.557,-15863.458,-699.431,-17091.910,-9225.146,-6664.642,0
14947.281,-17073.871,-14913.240,-11746.222,-15859.568,-699.140,-17088.379,-9229.862,-6667.637,0
14947.282,-17066.025,-14909.307,-11739.940,-15848.571,-699.364,-17080.645,-9237.663,-6674.387,0
14947.282,-17063.389,-14908.591,-11738.152,-15845.979,-697.777,-17078.408,-9235.138,-6678.634,0
14947.282,-17071.055,-14917.867,-11744.411,-15855.680,-698.984,-17085.605,-9236.702,-6679.663,0
14947.282,-17076.934,-14921.556,-11750.044,-15863.949,-702.091,-17092.133,-9243.899,-6678.053,0
14947.282,-17075.637,-14913.799,-11748.100,-15860.217,-701.375,-17090.346,-9220.452,-6677.517,0
14947.282,-17067.121,-14902.601,-11740.209,-15847.901,-698.537,-17082.768,-9220.117,-6678.992,0
14947.282,-17068.463,-14902.869,-11739.829,-15847.700,-696.927,-17081.023,-9226.599,-6671.146,0
14947.282,-17073.135,-14908.346,-11743.450,-15855.635,-697.263,-17086.881,-9227.247,-6672.309,0
14947.341,-17076.621,-14914.179,-11745.573,-15862.787,-698.157,-17092.400,-9224.163,-6670.655,0
14947.341,-17071.391,-14911.810,-11741.192,-15858.250,-697.576,-17089.875,-9226.621,-6671.683,0
14947.341,-17064.797,-14906.021,-11732.632,-15847.208,-696.480,-17080.867,-9226.711,-6672.487,0
14947.341,-17064.551,-14903.741,-11730.731,-15844.973,-694.580,-17076.039,-9226.174,-6669.828,0
14947.342,-17071.436,-14910.603,-11737.885,-15855.366,-696.369,-17080.131,-9226.331,-6666.229,0
14947.342,-17077.648,-14917.040,-11742.690,-15865.312,-699.855,-17086.232,-9217.502,-6664.307,0
14947.342,-17070.229,-14906.803,-11736.029,-15857.780,-695.989,-17079.615,-9214.306,-6653.377,0
14947.342,-17063.053,-14897.572,-11729.234,-15846.984,-693.463,-17071.168,-9217.367,-6656.595,0
14947.342,-17062.182,-14896.253,-11727.736,-15845.710,-691.250,-17069.670,-9216.295,-6658.562,0
14947.342,-17065.088,-14902.288,-11731.470,-15853.556,-691.876,-17075.637,-9221.749,-6658.629,0
14947.342,-17068.172,-14910.491,-11734.107,-15859.993,-691.675,-17077.805,-9209.098,-6648.996,0
14947.342,-17064.998,-14907.585,-11731.179,-15856.641,-691.496,-17074.766,-9202.169,-6645.979,0
14947.342,-17060.527,-14898.577,-11726.999,-15847.029,-691.384,-17068.328,-9201.073,-6650.650,0
14947.342,-17059.500,-14890.263,-11727.223,-15845.040,-690.624,-17067.613,-9209.947,-6658.607,0
14947.342,-17064.686,-14897.817,-11734.711,-15855.165,-693.396,-17075.480,-9217.927,-6661.982,0
14947.402,-17065.914,-14901.931,-11738.532,-15862.005,-694.513,-17081.182,-9222.934,-6663.771,0
14947.402,-17066.025,-14904.322,-11737.661,-15859.591,-694.804,-17079.816,-9223.022,-6660.865,0
14947.402,-17060.885,-14899.650,-11731.179,-15848.571,-692.077,-17071.525,-9220.743,-6661.848,0
14947.402,-17062.896,-14899.472,-11735.604,-15849.220,-692.770,-17073.021,-9227.314,-6666.721,0
14947.402,-17067.994,-14903.518,-11743.159,-15857.021,-693.239,-17079.773,-9229.304,-6668.218,0
14947.402,-17071.502,-14908.703,-11747.339,-15862.742,-694.290,-17084.689,-9227.068,-6666.631,0
14947.402,-17069.715,-14908.278,-11744.479,-15859.188,-694.379,-17083.527,-9223.626,-6668.956,0
14947.402,-17064.953,-14902.064,-11737.035,-15849.466,-692.278,-17077.359,-9222.308,-6670.409,0
14947.402,-17064.574,-14900.276,-11736.945,-15849.577,-690.267,-17075.459,-9224.453,-6664.821,0
14947.402,-17068.730,-14907.071,-11742.734,-15857.713,-692.166,-17083.863,-9229.393,-6667.391,0
14947.402,-17071.793,-14913.062,-11745.596,-15863.301,-692.390,-17089.406,-9230.801,-6671.996,0
14947.403,-17070.809,-14911.072,-11742.578,-15859.390,-691.943,-17086.947,-9236.434,-6675.818,0
14947.403,-17067.211,-14905.909,-11736.700,-15848.885,-690.870,-17079.213,-9233.327,-6675.930,0
14947.403,-17068.037,-14904.858,-11734.867,-15846.851,-687.786,-17075.906,-9220.027,-6675.706,0
14947.403,-17075.191,-14912.548,-11741.662,-15856.238,-688.322,-17080.332,-9218.128,-6671.146,0
14947.462,-17079.996,-14916.012,-11745.774,-15863.904,-689.797,-17085.271,-9218.396,-6665.872,0
14947.462,-17078.029,-14912.815,-11742.131,-15860.888,-691.786,-17083.416,-9222.934,-6668.464,0
14947.462,-17070.340,-14901.662,-11732.386,-15847.588,-688.456,-17071.949,-9220.430,-6660.351,0
14947.462,-17071.613,-14903.316,-11732.654,-15847.767,-687.070,-17069.357,-9214.060,-6653.086,0
14947.462,-17075.393,-14909.977,-11736.767,-15856.305,-687.741,-17073.021,-9212.405,-6649.577,0
14947.462,-17079.684,-14918.202,-11739.494,-15864.195,-690.311,-17078.543,-9211.690,-6652.326,0
14947.462,-17074.453,-14912.905,-11734.867,-15859.591,-689.037,-17074.699,-9203.777,-6653.354,0
14947.463,-17065.154,-14898.936,-11727.535,-15847.387,-688.635,-17065.422,-9205.901,-6649.130,0
14947.463,-17062.852,-14895.940,-11727.558,-15846.292,-690.512,-17065.244,-9216.697,-6649.041,0
14947.463,-17064.641,-14898.936,-11730.509,-15853.757,-690.915,-17071.771,-9208.740,-6651.700,0
14947.463,-17067.904,-14902.668,-11733.884,-15860.664,-692.032,-17078.408,-9210.662,-6657.400,0
14947.463,-17067.100,-14902.176,-11733.683,-15858.250,-694.066,-17076.666,-9215.870,-6657.065,0
14947.463,-17062.227,-14897.817,-11728.899,-15848.259,-693.038,-17068.396,-9210.350,-6651.857,0
14947.463,-17056.393,-14889.614,-11727.089,-15844.615,-691.921,-17066.742,-9215.669,-6659.054,0
14947.463,-17061.557,-14893.437,-11734.151,-15854.093,-695.922,-17076.957,-9219.491,-6666.072,0
14947.521,-17070.340,-14903.629,-11740.053,-15861.670,-696.056,-17083.752,-9226.644,-6666.005,0
14947.521,-17067.881,-14902.288,-11736.945,-15856.707,-693.373,-17079.996,-9223.090,-6665.044,0
14947.521,-17061.064,-14896.633,-11730.374,-15847.744,-692.591,-17073.961,-9222.911,-6665.000,0
14947.521,-17065.602,-14902.243,-11733.079,-15848.526,-691.876,-17073.871,-9227.158,-6665.782,0
14947.522,-17074.072,-14913.799,-11738.577,-15856.261,-689.551,-17078.275,-9224.252,-6662.273,0
14947.522,-17081.828,-14923.545,-11743.986,-15864.844,-688.635,-17083.908,-9218.105,-6660.507,0
14947.522,-17080.242,-14927.501,-11741.527,-15861.446,-687.540,-17081.471,-9215.893,-6661.781,0
14947.522,-17073.201,-14922.137,-11731.895,-15848.885,-685.684,-17074.475,-9216.765,-6664.597,0
14947.522,-17073.246,-14916.906,-11731.961,-15848.146,-687.160,-17076.777,-9222.821,-6672.487,0
14947.522,-17078.678,-14918.604,-11736.610,-15856.976,-688.434,-17083.193,-9224.654,-6671.236,0
14947.522,-17080.734,-14919.142,-11737.013,-15862.877,-688.389,-17085.875,-9220.698,-6663.748,0
14947.522,-17076.801,-14919.544,-11731.782,-15858.183,-688.702,-17083.035,-9220.363,-6660.664,0
14947.522,-17068.730,-14912.212,-11724.138,-15845.911,-689.060,-17076.264,-9230.577,-6667.324,0
14947.522,-17067.189,-14910.514,-11722.842,-15843.811,-687.741,-17073.939,-9223.761,-6670.409,0
14947.522,-17075.459,-14919.432,-11730.754,-15855.344,-687.964,-17077.672,-9209.589,-6656.729,0
14947.581,-17080.957,-14923.857,-11733.794,-15862.608,-686.914,-17079.348,-9201.118,-6647.990,0
14947.581,-17077.158,-14919.812,-11730.330,-15858.920,-689.149,-17078.453,-9204.381,-6654.047,0
14947.581,-17067.836,-14912.212,-11723.535,-15848.146,-687.987,-17070.027,-9207.086,-6647.498,0
14947.581,-17065.445,-14907.295,-11722.887,-15845.576,-686.735,-17066.496,-9209.970,-6646.381,0
14947.581,-17070.162,-14909.999,-11729.436,-15851.164,-687.204,-17071.078,-9214.774,-6651.186,0
14947.581,-17074.072,-14916.034,-11733.728,-15856.462,-689.529,-17078.633,-9218.016,-6662.027,0
14947.582,-17071.525,-14912.436,-11732.162,-15851.164,-689.574,-17077.045,-9221.548,-6672.152,0
14947.582,-17064.908,-14902.109,-11722.932,-15838.871,-685.841,-17065.713,-9223.850,-6658.383,0
14947.582,-17063.725,-14901.707,-11719.713,-15837.932,-684.053,-17063.971,-9220.184,-6648.392,0
14947.582,-17066.205,-14907.987,-11724.071,-15846.001,-684.276,-17071.346,-9218.687,-6652.259,0
14947.582,-17072.463,-14917.130,-11730.754,-15855.165,-687.115,-17078.811,-9209.410,-6660.239,0
14947.582,-17070.273,-14918.202,-11726.709,-15849.555,-685.841,-17074.543,-9213.099,-6657.601,0
14947.582,-17062.361,-14911.095,-11717.030,-15835.809,-684.947,-17067.055,-9217.681,-6659.412,0
14947.582,-17060.059,-14908.748,-11716.203,-15833.439,-684.477,-17065.824,-9222.017,-6662.742,0
14947.582,-17064.818,-14911.162,-11722.261,-15843.006,-687.026,-17074.363,-9223.336,-6666.318,0
14947.641,-17068.910,-14911.497,-11727.200,-15851.343,-689.372,-17082.365,-9226.174,-6669.247,0
14947.641,-17065.646,-14908.993,-11725.100,-15848.080,-687.182,-17081.293,-9226.264,-6669.380,0
14947.641,-17059.098,-14901.237,-11718.931,-15837.529,-685.305,-17075.146,-9226.777,-6668.710,0
14947.642,-17054.984,-14894.576,-11717.365,-15834.646,-680.186,-17070.363,-9221.391,-6664.374,0
14947.642,-17058.627,-14900.053,-11722.797,-15843.542,-677.951,-17073.514,-9221.525,-6663.256,0
14947.642,-17064.172,-14910.357,-11726.552,-15852.104,-678.286,-17078.789,-9224.632,-6668.576,0
14947.642,-17063.857,-14912.614,-11724.339,-15848.885,-676.565,-17073.850,-9217.211,-6661.871,0
14947.642,-17055.297,-14900.053,-11717.544,-15837.083,-674.017,-17061.734,-9216.161,-6654.875,0
14947.642,-17052.279,-14892.744,-11716.315,-15836.121,-673.659,-17058.986,-9219.916,-6659.233,0
14947.642,-17058.561,-14900.030,-11721.479,-15844.459,-673.346,-17063.076,-9212.249,-6657.579,0
14947.642,-17061.266,-14903.182,-11726.508,-15850.852,-674.844,-17066.361,-9218.150,-6655.098,0
14947.642,-17056.816,-14899.941,-11721.791,-15846.448,-674.039,-17060.975,-9215.870,-6654.382,0
14947.642,-17051.631,-14895.314,-11716.896,-15836.278,-674.933,-17053.621,-9214.484,-6650.225,0
14947.642,-17047.475,-14890.911,-11716.248,-15831.718,-674.531,-17052.705,-9218.642,-6648.571,0
14947.643,-17050.648,-14894.175,-11721.076,-15839.385,-678.152,-17061.512,-9225.190,-6655.388,0
14947.702,-17054.270,-14897.125,-11723.735,-15845.956,-680.052,-17068.283,-9223.246,-6653.645,0
14947.702,-17048.547,-14892.945,-11715.936,-15840.614,-677.750,-17068.061,-9212.629,-6654.919,0
14947.702,-17040.389,-14883.289,-11706.413,-15829.886,-675.783,-17061.422,-9210.818,-6654.002,0
14947.702,-17039.182,-14881.099,-11705.966,-15829.506,-675.000,-17059.768,-9214.439,-6654.606,0
14947.702,-17045.709,-14889.189,-11712.984,-15838.535,-674.822,-17066.316,-9213.635,-6656.551,0
14947.702,-17051.006,-14894.219,-11718.841,-15845.509,-676.319,-17073.357,-9214.596,-6659.814,0
14947.702,-17049.688,-14891.560,-11716.739,-15842.134,-677.325,-17072.039,-9216.854,-6660.462,0
14947.702,-17042.848,-14882.618,-11707.308,-15830.153,-674.375,-17063.523,-9209.656,-6657.512,0
14947.702,-17042.088,-14880.719,-11706.436,-15827.695,-673.682,-17061.980,-9217.211,-6656.618,0
14947.702,-17047.541,-14884.496,-11713.186,-15835.316,-673.100,-17066.025,-9219.961,-6651.879,0
14947.702,-17053.084,-14889.503,-11719.757,-15843.677,-673.771,-17072.285,-9210.506,-6654.628,0
14947.703,-17049.129,-14885.188,-11717.142,-15838.469,-672.944,-17069.111,-9205.924,-6657.042,0
14947.703,-17040.166,-14875.466,-11710.146,-15826.175,-671.245,-17059.566,-9210.506,-6655.657,0
14947.703,-17039.406,-14873.723,-11710.124,-15824.856,-670.910,-17058.426,-9214.104,-6655.679,0
14947.703,-17041.104,-14873.924,-11715.577,-15832.858,-671.916,-17066.025,-9208.002,-6661.356,0
14947.762,-17044.568,-14874.840,-11721.947,-15840.994,-673.391,-17072.217,-9211.311,-6659.032,0
14947.762,-17040.680,-14870.906,-11719.042,-15837.083,-673.212,-17070.742,-9216.272,-6658.965,0
14947.762,-17033.527,-14861.116,-11712.448,-15825.438,-671.133,-17060.998,-9216.451,-6654.785,0
14947.762,-17033.236,-14859.596,-11713.029,-15823.783,-670.463,-17057.980,-9216.496,-6656.104,0
14947.763,-17036.455,-14862.882,-11718.282,-15831.495,-671.268,-17063.500,-9217.188,-6661.401,0
14947.763,-17043.586,-14870.169,-11724.697,-15840.056,-673.212,-17068.799,-9219.625,-6660.775,0
14947.763,-17044.232,-14871.599,-11723.758,-15837.463,-673.995,-17066.965,-9224.521,-6655.366,0
14947.763,-17038.602,-14865.810,-11716.359,-15825.348,-671.536,-17057.936,-9218.128,-6647.498,0
14947.763,-17038.533,-14863.374,-11715.979,-15823.292,-670.508,-17053.643,-9219.625,-6646.358,0
14947.763,-17044.076,-14868.135,-11721.947,-15832.434,-672.720,-17059.723,-9221.368,-6652.036,0
14947.764,-17048.682,-14875.511,-11727.535,-15839.541,-673.704,-17065.244,-9220.005,-6647.632,0
14947.764,-17048.547,-14876.293,-11726.284,-15837.083,-674.039,-17065.646,-9208.896,-6650.583,0
14947.764,-17040.545,-14863.284,-11718.215,-15824.499,-671.402,-17056.549,-9210.059,-6653.131,0
14947.764,-17040.166,-14860.155,-11718.147,-15823.761,-670.038,-17054.693,-9213.903,-6656.618,0
14947.764,-17049.820,-14868.850,-11727.334,-15834.981,-670.910,-17060.059,-9212.606,-6652.840,0
14947.822,-17056.438,-14876.293,-11733.057,-15842.961,-671.558,-17063.812,-9214.082,-6650.985,0
14947.822,-17055.297,-14876.226,-11730.240,-15838.871,-669.994,-17060.953,-9215.759,-6653.645,0
14947.823,-17050.826,-14873.365,-11724.429,-15828.835,-669.345,-17054.203,-9213.747,-6651.678,0
14947.823,-17047.094,-14870.728,-11722.842,-15825.191,-667.758,-17052.795,-9216.541,-6653.689,0
14947.823,-17052.393,-14877.656,-11727.692,-15834.490,-670.150,-17061.578,-9219.134,-6658.652,0
14947.823,-17056.773,-14882.730,-11730.776,-15841.396,-673.279,-17068.664,-9219.111,-6660.574,0
14947.823,-17053.018,-14877.611,-11726.977,-15836.681,-675.783,-17068.709,-9214.351,-6658.160,0
14947.824,-17042.422,-14867.174,-11719.757,-15823.381,-674.710,-17061.400,-9217.748,-6657.557,0
14947.824,-17041.104,-14866.369,-11719.802,-15822.174,-673.369,-17061.467,-9216.786,-6657.042,0
14947.824,-17044.592,-14870.839,-11724.250,-15830.198,-675.336,-17069.156,-9222.486,-6661.289,0
14947.824,-17046.469,-14873.946,-11726.687,-15835.652,-677.638,-17076.240,-9225.258,-6665.559,0
14947.824,-17041.016,-14869.699,-11721.746,-15829.975,-677.504,-17074.520,-9220.407,-6664.418,0
14947.824,-17033.482,-14860.244,-11714.549,-15819.470,-675.850,-17066.742,-9216.563,-6662.742,0
14947.825,-17030.822,-14857.227,-11711.286,-15816.117,-671.938,-17062.518,-9215.669,-6659.792,0
14947.825,-17036.098,-14863.709,-11714.951,-15824.565,-671.938,-17068.283,-9221.503,-6663.994,0
14947.882,-17042.824,-14870.549,-11721.009,-15833.507,-672.497,-17071.748,-9222.598,-6660.797,0
14947.883,-17043.250,-14869.767,-11721.188,-15831.539,-673.145,-17068.709,-9211.422,-6659.389,0
14947.883,-17038.623,-14862.703,-11713.901,-15820.252,-672.162,-17060.236,-9211.959,-6656.506,0
14947.883,-17042.133,-14866.950,-11714.594,-15820.431,-670.843,-17058.740,-9209.790,-6647.677,0
14947.883,-17048.547,-14875.443,-11719.713,-15828.701,-670.798,-17064.662,-9210.729,-6651.030,0
14947.883,-17054.537,-14883.602,-11724.317,-15835.898,-671.022,-17069.514,-9214.887,-6656.663,0
14947.883,-17056.750,-14883.065,-11724.094,-15834.937,-671.692,-17067.613,-9214.417,-6656.014,0
14947.883,-17052.459,-14876.024,-11718.059,-15825.169,-669.524,-17058.762,-9214.060,-6654.137,0
14947.883,-17052.414,-14876.673,-11719.109,-15825.549,-668.988,-17056.615,-9215.535,-6654.539,0
14947.884,-17053.801,-14879.042,-11723.177,-15833.931,-668.340,-17060.305,-9213.568,-6653.153,0
14947.884,-17055.029,-14879.243,-11725.524,-15841.039,-668.451,-17064.373,-9211.937,-6651.231,0
14947.884,-17050.738,-14877.522,-11721.165,-15837.307,-667.624,-17061.221,-9204.873,-6648.035,0
14947.884,-17042.379,-14870.772,-11712.582,-15824.298,-663.914,-17051.273,-9200.313,-6644.704,0
14947.884,-17040.455,-14868.381,-11711.935,-15821.995,-661.947,-17048.256,-9203.286,-6643.475,0
14947.884,-17045.463,-14871.599,-11718.147,-15831.315,-663.713,-17054.270,-9205.544,-6644.146,0
14947.942,-17048.547,-14874.706,-11721.970,-15838.268,-664.562,-17059.812,-9201.476,-6643.162,0
14947.942,-17045.082,-14872.403,-11718.215,-15833.842,-663.981,-17058.717,-9202.571,-6645.554,0
14947.942,-17038.109,-14864.290,-11709.699,-15821.593,-662.506,-17050.424,-9205.678,-6643.296,0
14947.942,-17035.918,-14862.055,-11710.102,-15819.604,-662.014,-17047.676,-9214.529,-6644.011,0
14947.943,-17043.004,-14869.141,-11718.394,-15829.036,-661.947,-17053.129,-9210.305,-6640.636,0
14947.943,-17049.508,-14872.739,-11723.490,-15837.798,-664.294,-17059.566,-9202.593,-6646.135,0
14947.943,-17047.943,-14872.001,-11719.735,-15834.132,-667.445,-17058.762,-9207.376,-6651.276,0
14947.943,-17042.623,-14867.732,-11713.767,-15823.717,-667.289,-17049.553,-9205.990,-6640.078,0
14947.943,-17040.277,-14863.597,-11712.381,-15821.504,-665.836,-17045.910,-9211.467,-6640.815,0
14947.944,-17051.588,-14876.047,-11722.127,-15829.975,-664.830,-17053.510,-9214.954,-6646.939,0
14947.944,-17061.980,-14887.268,-11730.017,-15837.440,-664.093,-17060.260,-9211.869,-6652.349,0
14947.944,-17059.230,-14883.423,-11728.608,-15835.741,-665.613,-17060.752,-9211.132,-6652.058,0
14947.944,-17053.062,-14875.466,-11721.836,-15823.738,-662.774,-17052.369,-9213.054,-6646.492,0
14947.944,-17056.594,-14877.187,-11723.602,-15823.896,-662.953,-17053.957,-9219.021,-6657.311,0
14947.945,-17062.115,-14883.691,-11728.497,-15831.897,-662.528,-17058.383,-9214.261,-6658.182,0
14948.002,-17067.547,-14891.671,-11734.711,-15839.206,-664.875,-17063.523,-9219.312,-6654.204,0
14948.002,-17061.980,-14887.379,-11733.102,-15835.518,-667.289,-17062.920,-9229.169,-6661.177,0
14948.002,-17053.600,-14880.271,-11725.591,-15823.336,-663.936,-17050.715,-9217.211,-6648.750,0
14948.002,-17055.074,-14880.160,-11726.775,-15823.851,-665.791,-17051.229,-9214.462,-6660.641,0
14948.003,-17058.404,-14883.825,-11730.731,-15832.009,-667.490,-17059.746,-9219.357,-6668.710,0
14948.003,-17059.275,-14884.071,-11734.890,-15837.820,-665.546,-17060.773,-9223.201,-6648.772,0
14948.003,-17054.783,-14880.138,-11731.693,-15833.171,-664.048,-17057.846,-9220.631,-6644.637,0
14948.003,-17047.697,-14874.795,-11724.831,-15822.867,-664.093,-17053.465,-9217.949,-6647.096,0
14948.003,-17046.982,-14873.477,-11723.289,-15821.771,-662.707,-17052.033,-9216.742,-6648.616,0
14948.004,-17050.559,-14878.528,-11727.894,-15828.589,-661.366,-17055.141,-9217.971,-6648.616,0
14948.004,-17054.516,-14888.542,-11731.067,-15836.479,-662.260,-17060.281,-9216.026,-6650.001,0
14948.004,-17048.168,-14877.880,-11726.373,-15832.099,-663.020,-17057.041,-9220.273,-6649.309,0
14948.004,-17037.326,-14859.552,-11717.724,-15819.827,-661.857,-17047.184,-9217.568,-6647.789,0
14948.004,-17035.762,-14853.986,-11716.762,-15818.352,-660.516,-17043.764,-9211.758,-6649.063,0
14948.004,-17040.143,-14857.674,-11721.903,-15827.359,-661.746,-17048.279,-9213.076,-6652.505,0
14948.062,-17042.557,-14863.352,-11724.519,-15834.825,-660.628,-17051.855,-9207.936,-6645.084,0
14948.062,-17040.881,-14863.731,-11721.143,-15832.992,-657.857,-17048.168,-9203.822,-6637.686,0
14948.062,-17036.164,-14856.020,-11713.565,-15821.884,-655.241,-17038.422,-9206.013,-6635.071,0
14948.063,-17038.266,-14857.965,-11716.092,-15821.369,-653.453,-17034.221,-9203.152,-6618.776,0
14948.063,-17041.641,-14865.162,-11722.730,-15829.773,-657.141,-17044.680,-9205.879,-6633.573,0
14948.063,-17041.127,-14864.804,-11724.697,-15834.848,-659.265,-17052.504,-9213.858,-6644.436,0
14948.063,-17038.668,-14860.915,-11721.165,-15831.428,-659.578,-17051.252,-9215.602,-6642.983,0
14948.063,-17033.258,-14853.740,-11715.645,-15819.827,-659.891,-17044.703,-9216.898,-6640.949,0
14948.063,-17034.221,-14853.069,-11717.388,-15819.827,-662.170,-17046.691,-9204.381,-6640.145,0
14948.063,-17038.869,-14857.003,-11720.674,-15826.130,-663.087,-17051.721,-9202.794,-6641.508,0
14948.063,-17042.781,-14860.691,-11724.183,-15831.651,-663.780,-17056.303,-9204.984,-6639.273,0
14948.063,-17038.959,-14855.886,-11722.148,-15828.365,-666.507,-17057.420,-9201.587,-6644.414,0
14948.063,-17028.789,-14846.878,-11712.225,-15814.775,-665.054,-17048.973,-9201.051,-6643.609,0
14948.063,-17029.795,-14847.615,-11713.543,-15813.948,-664.920,-17047.475,-9209.970,-6639.943,0
14948.064,-17035.426,-14854.500,-11717.790,-15821.794,-664.562,-17052.459,-9208.002,-6642.246,0
14948.122,-17040.188,-14861.385,-11722.529,-15829.550,-665.121,-17057.711,-9208.002,-6644.190,0
14948.122,-17038.713,-14859.797,-11721.635,-15827.695,-664.607,-17056.102,-9205.633,-6641.284,0
14948.122,-17031.404,-14852.936,-11714.370,-15816.251,-663.892,-17048.949,-9203.935,-6640.860,0
14948.123,-17030.934,-14850.320,-11713.521,-15814.328,-663.154,-17046.156,-9207.398,-6639.094,0
14948.123,-17034.354,-14855.237,-11717.030,-15821.369,-661.902,-17049.934,-9209.835,-6637.797,0
14948.123,-17039.539,-14859.529,-11721.635,-15830.198,-663.936,-17055.723,-9203.018,-6638.513,0
14948.123,-17039.047,-14860.803,-11716.919,-15827.717,-662.036,-17050.693,-9186.053,-6629.192,0
14948.123,-17033.594,-14857.629,-11709.028,-15817.033,-659.198,-17041.887,-9185.517,-6626.063,0
14948.124,-17031.023,-14854.254,-11706.659,-15814.574,-658.415,-17040.053,-9196.625,-6634.668,0
14948.124,-17037.104,-14861.765,-11713.007,-15824.588,-659.555,-17045.598,-9202.325,-6637.216,0
14948.124,-17039.674,-14866.659,-11717.321,-15831.853,-659.198,-17048.100,-9201.431,-6630.667,0
14948.124,-17037.236,-14860.379,-11715.152,-15828.812,-657.298,-17044.793,-9189.518,-6622.084,0
14948.124,-17029.795,-14848.800,-11706.637,-15816.608,-654.504,-17035.695,-9190.232,-6622.844,0
14948.124,-17031.672,-14848.465,-11707.441,-15817.793,-654.034,-17035.873,-9187.931,-6627.225,0
14948.125,-17034.666,-14851.751,-11711.956,-15826.310,-654.101,-17042.713,-9192.155,-6631.182,0
14948.182,-17036.656,-14854.679,-11716.047,-15833.931,-654.861,-17046.715,-9190.858,-6627.292,0
14948.183,-17032.744,-14849.717,-11713.029,-15828.410,-653.252,-17042.064,-9183.482,-6625.146,0
14948.183,-17026.486,-14842.698,-11706.994,-15816.653,-654.437,-17036.164,-9192.981,-6634.422,0
14948.183,-17023.670,-14843.928,-11707.039,-15814.351,-653.878,-17036.143,-9198.391,-6630.466,0
14948.183,-17025.973,-14847.615,-11712.001,-15821.168,-653.163,-17042.467,-9204.068,-6628.656,0
14948.183,-17031.672,-14851.415,-11716.248,-15827.940,-653.587,-17049.240,-9204.672,-6632.031,0
14948.184,-17030.889,-14852.466,-11713.298,-15825.103,-655.040,-17049.643,-9204.202,-6636.725,0
14948.184,-17025.816,-14849.561,-11705.631,-15813.435,-654.928,-17044.346,-9202.392,-6641.061,0
14948.184,-17026.352,-14846.387,-11705.832,-15811.445,-656.180,-17044.100,-9211.087,-6646.448,0
14948.184,-17034.846,-14853.628,-11713.208,-15821.102,-657.164,-17049.777,-9208.069,-6645.509,0
14948.184,-17040.656,-14860.021,-11718.036,-15829.416,-659.041,-17055.410,-9204.158,-6645.241,0
14948.184,-17035.807,-14857.070,-11714.304,-15824.968,-659.354,-17053.465,-9203.062,-6646.738,0
14948.185,-17029.480,-14848.532,-11708.000,-15813.725,-659.980,-17047.609,-9205.723,-6647.789,0
14948.185,-17030.867,-14849.762,-11708.648,-15813.010,-660.181,-17046.514,-9210.886,-6647.677,0
14948.185,-17033.572,-14854.008,-11711.130,-15819.425,-661.008,-17051.744,-9219.826,-6653.108,0
14948.243,-17035.471,-14857.719,-11714.348,-15825.393,-662.103,-17055.186,-9220.810,-6649.979,0
14948.243,-17033.818,-14856.132,-11712.247,-15822.822,-663.020,-17054.023,-9212.383,-6652.930,0
14948.243,-17030.174,-14851.997,-11704.982,-15812.317,-660.516,-17045.418,-9198.682,-6647.163,0
14948.243,-17029.727,-14851.639,-11704.982,-15811.355,-657.901,-17039.719,-9198.189,-6630.645,0
14948.243,-17032.230,-14855.953,-11708.090,-15818.866,-658.840,-17045.016,-9201.073,-6631.360,0
14948.243,-17033.951,-14858.523,-11712.918,-15825.840,-661.187,-17051.273,-9207.332,-6635.473,0
14948.243,-17031.783,-14854.769,-11710.749,-15823.157,-660.583,-17048.615,-9208.539,-6633.104,0
14948.244,-17025.168,-14844.151,-11703.508,-15812.384,-659.399,-17042.467,-9207.041,-6640.234,0
14948.244,-17024.385,-14842.564,-11703.172,-15811.981,-658.773,-17042.848,-9203.331,-6642.983,0
14948.244,-17030.039,-14851.527,-11708.425,-15819.045,-659.399,-17049.598,-9206.885,-6643.989,0
14948.244,-17037.059,-14860.021,-11714.907,-15826.667,-661.410,-17056.930,-9207.398,-6649.778,0
14948.244,-17035.248,-14859.015,-11713.387,-15823.851,-661.768,-17055.410,-9202.392,-6646.470,0
14948.244,-17029.771,-14851.103,-11707.330,-15812.720,-660.718,-17047.184,-9203.309,-6639.876,0
14948.244,-17028.453,-14848.130,-11706.860,-15810.774,-659.399,-17045.529,-9202.929,-6638.871,0
14948.244,-17032.186,-14851.997,-11711.956,-15818.688,-659.354,-17050.537,-9198.146,-6639.921,0
14948.303,-17034.377,-14857.093,-11716.472,-15826.019,-661.008,-17054.828,-9203.733,-6639.832,0
14948.303,-17031.627,-14854.433,-11713.364,-15822.711,-663.065,-17053.979,-9207.778,-6642.804,0
14948.304,-17023.178,-14844.688,-11706.346,-15810.976,-662.774,-17047.609,-9211.824,-6651.656,0
14948.304,-17020.697,-14840.933,-11705.072,-15807.623,-658.169,-17041.998,-9209.478,-6638.625,0
14948.304,-17025.012,-14846.342,-11709.722,-15816.475,-658.639,-17048.100,-9205.387,-6637.507,0
14948.304,-17026.352,-14849.583,-11712.068,-15822.487,-660.673,-17054.314,-9207.175,-6643.877,0
14948.304,-17025.973,-14847.683,-11712.001,-15820.721,-661.813,-17053.621,-9211.824,-6648.705,0
14948.304,-17023.334,-14844.039,-11707.330,-15811.423,-661.500,-17048.324,-9216.228,-6653.377,0
14948.305,-17022.619,-14844.956,-11707.620,-15810.327,-661.388,-17048.658,-9220.497,-6657.713,0
14948.305,-17028.207,-14853.427,-11713.901,-15819.022,-661.723,-17053.330,-9221.279,-6655.657,0
14948.305,-17030.152,-14856.042,-11715.756,-15823.783,-660.449,-17055.498,-9218.820,-6652.818,0
14948.305,-17031.002,-14855.886,-11716.158,-15824.029,-663.333,-17054.359,-9221.033,-6652.237,0
14948.305,-17023.445,-14845.850,-11708.827,-15812.831,-661.701,-17044.680,-9215.558,-6648.392,0
14948.306,-17018.260,-14839.368,-11707.531,-15808.853,-659.421,-17040.367,-9218.933,-6647.610,0
14948.306,-17023.691,-14845.582,-11711.867,-15817.346,-658.795,-17045.037,-9214.529,-6643.676,0
14948.362,-17030.264,-14853.650,-11716.158,-15826.600,-659.466,-17051.006,-9204.896,-6642.849,0
14948.363,-17027.201,-14852.377,-11712.136,-15822.554,-659.689,-17049.396,-9203.420,-6645.755,0
14948.363,-17018.484,-14843.815,-11704.781,-15809.545,-657.387,-17040.455,-9207.533,-6642.916,0
14948.363,-17019.490,-14842.989,-11706.413,-15808.405,-656.650,-17037.930,-9209.410,-6635.942,0
14948.363,-17027.426,-14847.348,-11712.471,-15817.368,-656.940,-17045.396,-9197.676,-6640.189,0
14948.364,-17035.426,-14853.964,-11719.109,-15825.684,-658.058,-17051.006,-9200.135,-6643.967,0
14948.364,-17034.666,-14855.685,-11716.650,-15823.962,-658.125,-17049.463,-9209.455,-6642.201,0
14948.364,-17030.174,-14851.930,-11708.045,-15814.061,-656.270,-17041.373,-9200.022,-6638.490,0
14948.365,-17031.002,-14849.851,-11706.815,-15813.256,-656.784,-17041.842,-9197.385,-6646.448,0
14948.365,-17035.516,-14854.992,-11712.337,-15822.330,-658.460,-17047.721,-9201.028,-6647.900,0
14948.365,-17041.461,-14862.837,-11716.539,-15831.182,-658.840,-17050.826,-9196.625,-6632.701,0
14948.366,-17037.416,-14856.221,-11714.035,-15827.739,-659.131,-17049.508,-9195.418,-6637.172,0
14948.366,-17030.844,-14847.437,-11707.441,-15815.670,-656.180,-17038.332,-9194.301,-6631.673,0
14948.366,-17028.789,-14845.827,-11705.810,-15813.546,-657.097,-17038.668,-9202.437,-6640.189,0
14948.366,-17031.672,-14848.532,-11710.369,-15821.437,-657.901,-17043.809,-9211.176,-6641.173,0
14948.422,-17036.477,-14855.818,-11715.488,-15830.556,-660.069,-17050.715,-9209.746,-6640.368,0
14948.422,-17033.572,-14856.780,-11712.851,-15826.622,-660.472,-17050.045,-9211.937,-6645.934,0
14948.422,-17026.463,-14851.773,-11706.056,-15813.904,-659.980,-17042.938,-9213.434,-6645.106,0
14948.422,-17024.922,-14852.063,-11707.263,-15810.998,-657.052,-17036.410,-9221.793,-6630.511,0
14948.423,-17030.039,-14854.545,-11715.310,-15820.185,-659.265,-17044.100,-9218.574,-6635.384,0
14948.423,-17035.002,-14857.942,-11721.612,-15828.589,-659.846,-17050.826,-9206.751,-6635.495,0
14948.423,-17030.486,-14851.550,-11717.388,-15823.939,-658.415,-17046.893,-9213.657,-6638.938,0
14948.423,-17023.670,-14841.402,-11709.342,-15813.122,-657.231,-17039.248,-9215.938,-6645.330,0
14948.423,-17024.273,-14841.692,-11709.878,-15812.652,-655.934,-17038.064,-9215.759,-6643.743,0
14948.423,-17028.588,-14846.789,-11715.511,-15820.766,-655.398,-17042.848,-9216.116,-6637.932,0
14948.423,-17036.119,-14855.215,-11722.082,-15830.087,-656.270,-17048.123,-9212.339,-6632.791,0
14948.423,-17033.639,-14853.248,-11719.601,-15827.561,-657.521,-17049.240,-9216.496,-6642.559,0
14948.423,-17025.748,-14848.756,-11711.151,-15815.223,-657.834,-17045.238,-9217.412,-6648.191,0
14948.423,-17028.207,-14850.029,-11712.649,-15812.987,-655.554,-17041.551,-9207.332,-6638.669,0
14948.423,-17031.492,-14848.756,-11715.488,-15819.000,-653.632,-17043.562,-9203.420,-6637.328,0
14948.482,-17034.422,-14858.144,-11718.192,-15826.846,-655.666,-17051.430,-9209.857,-6639.116,0
14948.483,-17036.656,-14862.368,-11716.718,-15825.526,-656.381,-17049.979,-9216.607,-6632.456,0
14948.483,-17030.621,-14853.896,-11708.000,-15814.061,-654.638,-17043.049,-9209.790,-6639.116,0
14948.483,-17027.805,-14849.314,-11704.312,-15811.624,-654.616,-17045.037,-9200.761,-6651.611,0
14948.483,-17031.068,-14851.885,-11709.766,-15819.090,-652.984,-17045.842,-9197.899,-6630.689,0
14948.483,-17031.738,-14854.791,-11711.822,-15825.236,-655.554,-17053.822,-9202.794,-6645.777,0
14948.483,-17029.549,-14854.656,-11708.917,-15822.487,-655.666,-17053.062,-9201.654,-6650.627,0
14948.484,-17026.664,-14852.220,-11704.089,-15812.339,-652.358,-17042.289,-9198.749,-6635.942,0
14948.484,-17024.898,-14849.851,-11704.647,-15810.327,-651.553,-17040.412,-9205.990,-6631.852,0
14948.484,-17030.107,-14853.203,-11712.516,-15820.564,-653.207,-17047.139,-9207.622,-6632.433,0
14948.484,-17034.086,-14854.902,-11717.075,-15828.365,-654.236,-17051.945,-9204.627,-6632.366,0
14948.484,-17031.203,-14851.840,-11714.772,-15825.706,-655.398,-17050.381,-9205.700,-6632.299,0
14948.484,-17022.283,-14845.447,-11706.928,-15813.032,-653.319,-17040.814,-9205.768,-6625.035,0
14948.485,-17018.418,-14842.542,-11704.916,-15810.327,-653.252,-17039.205,-9211.444,-6626.264,0
14948.485,-17021.793,-14846.387,-11711.465,-15819.380,-655.152,-17046.043,-9214.283,-6633.707,0
14948.543,-17026.150,-14851.058,-11716.985,-15827.092,-657.611,-17051.900,-9215.289,-6638.759,0
14948.543,-17025.928,-14850.432,-11716.985,-15825.080,-659.332,-17050.895,-9219.826,-6642.804,0
14948.543,-17019.266,-14843.458,-11709.788,-15813.077,-657.879,-17040.814,-9219.514,-6638.446,0
14948.544,-17016.809,-14838.474,-11708.402,-15810.417,-657.499,-17039.406,-9219.178,-6640.972,0
14948.544,-17022.553,-14844.285,-11715.086,-15818.688,-659.622,-17048.213,-9219.670,-6642.514,0
14948.544,-17024.742,-14847.258,-11717.544,-15824.163,-659.019,-17052.525,-9220.407,-6641.910,0
14948.544,-17025.771,-14848.062,-11715.376,-15821.146,-659.242,-17051.273,-9219.894,-6644.302,0
14948.544,-17021.658,-14845.135,-11709.342,-15810.976,-658.505,-17045.865,-9224.744,-6648.571,0
14948.544,-17021.793,-14843.436,-11711.397,-15810.193,-656.515,-17044.189,-9224.654,-6644.973,0
14948.545,-17028.096,-14847.795,-11716.359,-15819.179,-656.560,-17049.844,-9223.537,-6641.105,0
14948.545,-17034.936,-14855.551,-11720.137,-15827.918,-659.198,-17058.092,-9222.531,-6646.738,0
14948.545,-17034.354,-14858.792,-11716.561,-15825.571,-659.153,-17057.086,-9216.943,-6647.744,0
14948.545,-17028.252,-14850.589,-11705.988,-15814.888,-656.940,-17048.682,-9219.514,-6644.995,0
14948.545,-17027.045,-14845.336,-11705.362,-15813.211,-656.247,-17046.604,-9216.898,-6645.017,0
14948.546,-17031.672,-14847.884,-11712.896,-15823.783,-659.041,-17053.979,-9218.731,-6649.219,0
14948.604,-17034.846,-14850.768,-11715.957,-15832.366,-660.919,-17059.678,-9224.297,-6648.906,0
14948.605,-17034.578,-14850.320,-11712.001,-15830.153,-659.645,-17056.102,-9222.531,-6647.610,0
14948.605,-17029.012,-14843.392,-11705.854,-15819.291,-657.409,-17047.898,-9220.452,-6649.063,0
14948.605,-17025.816,-14841.245,-11704.111,-15816.988,-656.068,-17045.307,-9221.101,-6648.571,0
14948.605,-17027.648,-14846.186,-11707.710,-15825.661,-657.924,-17051.408,-9227.448,-6651.678,0
14948.606,-17029.393,-14847.280,-11710.124,-15831.875,-658.125,-17056.527,-9225.437,-6658.562,0
14948.606,-17029.928,-14845.402,-11709.855,-15831.495,-656.001,-17052.660,-9217.323,-6645.486,0
14948.606,-17024.631,-14838.519,-11704.066,-15821.168,-650.168,-17040.814,-9204.136,-6630.220,0
14948.606,-17027.693,-14836.798,-11708.045,-15820.699,-649.095,-17038.578,-9198.682,-6633.417,0
14948.606,-17036.500,-14846.453,-11715.086,-15830.221,-651.062,-17043.629,-9208.896,-6632.947,0
14948.606,-17043.340,-14858.456,-11719.735,-15838.491,-651.576,-17048.928,-9205.990,-6636.501,0
14948.607,-17046.826,-14863.508,-11719.288,-15837.753,-651.196,-17046.379,-9196.268,-6630.779,0
14948.607,-17041.797,-14855.059,-11711.845,-15826.979,-648.223,-17035.248,-9197.206,-6615.759,0
14948.607,-17039.674,-14851.326,-11710.190,-15824.499,-648.469,-17035.002,-9208.896,-6620.967,0
14948.607,-17044.121,-14853.896,-11716.226,-15831.941,-649.743,-17041.104,-9209.299,-6623.224,0
14948.663,-17047.250,-14859.104,-11720.830,-15838.759,-652.336,-17048.592,-9202.816,-6626.778,0
14948.663,-17044.613,-14860.379,-11719.064,-15834.848,-653.364,-17047.250,-9202.660,-6627.672,0
14948.664,-17036.768,-14854.835,-11710.660,-15823.537,-653.274,-17041.238,-9206.371,-6630.689,0
14948.664,-17033.348,-14849.292,-11708.559,-15820.498,-651.866,-17040.926,-9207.265,-6631.360,0
14948.664,-17038.668,-14852.980,-11714.594,-15829.081,-653.274,-17047.496,-9209.344,-6632.366,0
14948.664,-17044.770,-14861.496,-11719.735,-15837.217,-654.705,-17053.062,-9206.550,-6634.959,0
14948.664,-17043.340,-14861.496,-11717.835,-15834.021,-653.163,-17048.994,-9195.463,-6629.751,0
14948.664,-17034.623,-14853.271,-11709.609,-15820.609,-652.157,-17041.707,-9198.860,-6627.046,0
14948.664,-17033.729,-14852.712,-11708.782,-15819.045,-653.721,-17043.629,-9205.253,-6631.450,0
14948.664,-17038.980,-14857.764,-11714.750,-15828.299,-655.152,-17050.559,-9209.522,-6633.864,0
14948.664,-17041.127,-14862.882,-11715.242,-15834.312,-654.571,-17055.074,-9204.426,-6631.807,0
14948.664,-17035.561,-14862.211,-11709.118,-15828.119,-653.140,-17053.197,-9201.364,-6635.160,0
14948.664,-17030.174,-14859.909,-11702.145,-15816.698,-653.520,-17047.988,-9200.782,-6642.312,0
14948.665,-17029.146,-14860.133,-11701.630,-15814.016,-654.660,-17049.844,-9216.675,-6649.175,0
14948.665,-17036.209,-14862.771,-11710.771,-15823.023,-656.270,-17057.420,-9211.534,-6653.086,0
14948.724,-17043.115,-14869.767,-11717.812,-15831.562,-654.481,-17059.611,-9193.094,-6642.514,0
14948.724,-17041.461,-14862.726,-11718.572,-15830.779,-653.766,-17054.068,-9195.664,-6615.043,0
14948.724,-17030.600,-14851.751,-11711.174,-15818.643,-653.386,-17047.564,-9201.141,-6624.856,0
14948.724,-17031.314,-14857.764,-11710.504,-15815.580,-652.582,-17047.496,-9203.018,-6637.775,0
14948.724,-17041.217,-14868.872,-11719.176,-15824.633,-653.520,-17051.766,-9209.299,-6631.002,0
14948.725,-17046.268,-14874.661,-11724.809,-15833.082,-655.711,-17057.152,-9213.434,-6629.326,0
14948.725,-17045.754,-14875.533,-11721.903,-15830.377,-656.873,-17056.549,-9214.193,-6636.188,0
14948.725,-17042.445,-14873.901,-11715.398,-15819.022,-655.621,-17048.658,-9220.988,-6640.279,0
14948.725,-17045.641,-14881.389,-11714.571,-15818.486,-655.040,-17048.816,-9221.950,-6645.934,0
14948.725,-17053.510,-14891.112,-11718.282,-15827.538,-654.258,-17055.588,-9215.177,-6644.168,0
14948.725,-17060.617,-14896.812,-11723.423,-15835.585,-655.487,-17062.182,-9212.986,-6644.704,0
14948.726,-17063.166,-14900.991,-11724.071,-15834.400,-657.454,-17061.803,-9215.981,-6647.096,0
14948.726,-17056.549,-14891.380,-11717.991,-15822.867,-656.203,-17051.855,-9218.150,-6641.575,0
14948.726,-17053.465,-14883.021,-11715.019,-15820.498,-654.817,-17049.396,-9217.792,-6637.730,0
14948.726,-17059.834,-14893.974,-11718.997,-15829.685,-655.599,-17056.371,-9223.157,-6640.949,0
14948.783,-17068.887,-14905.351,-11726.440,-15839.742,-656.806,-17063.746,-9219.401,-6645.151,0
14948.783,-17064.238,-14899.427,-11721.255,-15835.630,-656.515,-17059.992,-9213.009,-6643.877,0
14948.784,-17059.188,-14893.906,-11713.230,-15824.387,-656.024,-17052.637,-9211.512,-6639.273,0
14948.784,-17060.125,-14895.292,-11711.331,-15822.777,-655.286,-17050.336,-9198.503,-6635.652,0
14948.784,-17060.572,-14893.169,-11712.984,-15829.371,-654.057,-17052.906,-9195.798,-6629.617,0
14948.784,-17061.422,-14890.643,-11716.539,-15836.010,-656.627,-17058.650,-9203.309,-6633.082,0
14948.784,-17058.672,-14887.536,-11713.141,-15833.507,-658.862,-17059.275,-9202.348,-6643.453,0
14948.784,-17050.066,-14878.483,-11706.145,-15822.107,-657.052,-17050.312,-9199.956,-6636.389,0
14948.785,-17047.027,-14874.952,-11704.871,-15818.643,-654.593,-17043.227,-9202.504,-6615.245,0
14948.785,-17054.895,-14883.513,-11712.806,-15828.679,-656.851,-17050.180,-9209.075,-6621.481,0
14948.785,-17060.395,-14890.598,-11718.394,-15835.228,-657.298,-17055.566,-9209.746,-6625.191,0
14948.785,-17057.219,-14890.866,-11716.293,-15831.830,-657.834,-17055.633,-9212.182,-6631.002,0
14948.785,-17049.934,-14882.037,-11708.156,-15819.470,-657.745,-17049.039,-9217.949,-6635.920,0
14948.786,-17050.336,-14878.997,-11706.815,-15816.586,-656.001,-17046.715,-9219.469,-6639.362,0
14948.786,-17058.828,-14886.933,-11714.460,-15826.242,-656.270,-17053.129,-9211.779,-6640.010,0
14948.843,-17062.070,-14892.342,-11717.209,-15832.165,-656.605,-17056.035,-9211.623,-6637.261,0
14948.843,-17056.639,-14887.424,-11714.795,-15828.410,-659.600,-17054.180,-9223.604,-6638.021,0
14948.843,-17049.061,-14882.283,-11708.112,-15817.011,-659.734,-17048.033,-9219.446,-6640.368,0
14948.843,-17046.691,-14876.539,-11706.436,-15814.574,-658.527,-17046.760,-9214.909,-6641.195,0
14948.843,-17049.418,-14878.662,-11712.091,-15822.420,-659.064,-17051.297,-9215.356,-6638.222,0
14948.843,-17055.186,-14889.480,-11718.059,-15831.383,-661.299,-17057.332,-9204.896,-6636.859,0
14948.843,-17050.246,-14884.161,-11712.225,-15825.684,-660.673,-17056.371,-9204.873,-6643.654,0
14948.843,-17044.412,-14876.137,-11704.491,-15814.440,-660.226,-17049.285,-9216.585,-6640.502,0
14948.844,-17045.307,-14878.483,-11705.050,-15814.328,-658.348,-17047.006,-9214.618,-6631.919,0
14948.844,-17051.229,-14887.603,-11711.196,-15823.068,-656.962,-17053.107,-9211.623,-6632.769,0
14948.844,-17055.990,-14894.286,-11718.841,-15831.338,-658.907,-17060.506,-9217.211,-6642.134,0
14948.844,-17052.682,-14890.889,-11716.248,-15828.119,-658.415,-17060.863,-9207.398,-6652.773,0
14948.844,-17044.055,-14879.534,-11707.643,-15814.910,-654.370,-17049.508,-9213.813,-6643.475,0
14948.844,-17041.596,-14878.104,-11708.380,-15813.948,-654.437,-17048.547,-9222.419,-6650.404,0
14948.844,-17042.713,-14884.742,-11712.448,-15821.615,-653.207,-17052.727,-9218.418,-6645.666,0
14948.903,-17048.100,-14888.475,-11716.628,-15829.751,-654.727,-17058.113,-9212.361,-6634.646,0
14948.903,-17046.111,-14886.440,-11714.146,-15826.063,-656.895,-17057.107,-9221.146,-6639.898,0
14948.903,-17037.371,-14876.360,-11706.815,-15814.083,-656.895,-17050.760,-9225.929,-6640.234,0
14948.904,-17034.645,-14871.778,-11707.620,-15812.071,-657.946,-17048.816,-9230.734,-6637.083,0
14948.904,-17038.266,-14876.137,-11712.247,-15819.983,-659.198,-17053.531,-9232.478,-6638.625,0
14948.904,-17041.016,-14882.261,-11714.415,-15825.907,-660.852,-17058.225,-9219.781,-6639.474,0
14948.904,-17037.506,-14879.869,-11710.504,-15822.666,-660.628,-17055.543,-9211.980,-6638.736,0
14948.904,-17031.359,-14870.102,-11703.351,-15811.915,-661.254,-17048.436,-9212.428,-6638.178,0
14948.904,-17031.828,-14865.721,-11702.837,-15808.539,-660.002,-17044.748,-9217.167,-6637.619,0
14948.905,-17036.230,-14867.911,-11707.017,-15815.781,-659.801,-17049.777,-9225.839,-6637.328,0
14948.905,-17039.764,-14872.896,-11712.225,-15825.169,-664.003,-17057.734,-9233.662,-6640.458,0
14948.905,-17039.160,-14875.712,-11708.738,-15823.873,-663.422,-17057.152,-9211.288,-6638.178,0
14948.905,-17029.928,-14865.854,-11700.312,-15812.205,-661.321,-17048.949,-9204.359,-6637.954,0
14948.906,-17028.229,-14864.782,-11697.606,-15809.947,-660.718,-17047.988,-9204.314,-6646.738,0
14948.906,-17036.812,-14873.454,-11703.687,-15819.425,-660.114,-17050.246,-9203.309,-6629.460,0
14948.963,-17041.328,-14875.958,-11709.677,-15827.650,-661.075,-17053.441,-9205.253,-6620.654,0
14948.964,-17037.551,-14873.387,-11708.112,-15824.901,-661.656,-17052.146,-9213.970,-6629.058,0
14948.964,-17028.096,-14865.766,-11698.366,-15811.333,-659.064,-17043.473,-9210.617,-6639.161,0
14948.964,-17028.363,-14864.715,-11699.730,-15809.858,-658.348,-17042.334,-9205.745,-6633.372,0
14948.964,-17032.611,-14868.470,-11705.117,-15817.994,-658.773,-17047.652,-9209.433,-6623.425,0
14948.965,-17031.492,-14868.381,-11707.218,-15824.342,-659.533,-17052.928,-9219.401,-6631.360,0
14948.965,-17026.643,-14866.234,-11703.664,-15821.235,-662.036,-17054.627,-9227.717,-6649.354,0
14948.965,-17024.451,-14864.961,-11698.099,-15812.384,-661.254,-17048.658,-9216.786,-6644.592,0
14948.965,-17026.375,-14864.290,-11699.395,-15812.004,-658.617,-17044.881,-9205.678,-6623.090,0
14948.965,-17030.240,-14868.135,-11705.922,-15820.498,-659.064,-17051.408,-9208.517,-6623.604,0
14948.965,-17034.107,-14870.906,-11710.638,-15827.628,-660.807,-17056.996,-9214.104,-6629.125,0
14948.966,-17032.723,-14872.403,-11706.212,-15825.281,-660.606,-17055.252,-9210.350,-6632.992,0
14948.966,-17026.553,-14864.021,-11698.680,-15814.529,-658.438,-17045.977,-9210.416,-6627.113,0
14948.966,-17026.576,-14857.853,-11699.618,-15812.116,-657.767,-17043.854,-9211.824,-6626.130,0
14948.966,-17032.387,-14864.625,-11706.413,-15819.805,-657.901,-17050.180,-9212.584,-6629.282,0
14948.966,-17036.477,-14870.124,-11711.309,-15827.628,-658.460,-17054.984,-9217.167,-6629.818,0
14949.025,-17038.086,-14872.426,-11709.453,-15827.024,-658.661,-17053.152,-9210.997,-6629.952,0
14949.025,-17033.840,-14869.878,-11701.898,-15815.603,-656.493,-17044.658,-9209.947,-6631.002,0
14949.025,-17034.623,-14871.845,-11702.301,-15814.373,-655.219,-17042.133,-9214.887,-6632.522,0
14949.025,-17041.461,-14876.427,-11710.012,-15824.432,-654.347,-17046.982,-9213.501,-6627.650,0
14949.025,-17046.043,-14881.099,-11714.460,-15832.657,-654.481,-17050.670,-9212.093,-6623.693,0
14949.025,-17041.932,-14879.646,-11711.286,-15829.260,-652.939,-17047.184,-9201.699,-6625.415,0
14949.026,-17034.287,-14869.319,-11702.792,-15817.257,-651.911,-17039.160,-9203.331,-6627.650,0
14949.026,-17032.678,-14863.619,-11701.116,-15815.133,-653.140,-17038.086,-9208.271,-6628.901,0
14949.026,-17039.449,-14874.862,-11707.084,-15825.281,-657.611,-17047.988,-9207.376,-6635.495,0
14949.026,-17043.205,-14881.971,-11709.609,-15832.165,-658.125,-17053.152,-9203.152,-6634.489,0
14949.026,-17040.947,-14882.552,-11705.966,-15828.320,-656.895,-17049.889,-9196.938,-6624.431,0
14949.026,-17036.746,-14873.812,-11701.786,-15818.598,-658.996,-17046.402,-9209.500,-6626.532,0
14949.026,-17036.344,-14868.135,-11700.312,-15816.251,-658.684,-17044.793,-9214.104,-6624.476,0
14949.027,-17039.449,-14869.543,-11703.284,-15823.157,-655.934,-17048.547,-9200.358,-6623.671,0
14949.027,-17043.988,-14873.477,-11708.827,-15832.522,-659.913,-17056.014,-9206.080,-6629.729,0
14949.085,-17042.445,-14871.264,-11706.458,-15829.305,-659.645,-17054.516,-9204.694,-6632.165,0
14949.085,-17037.885,-14867.419,-11699.998,-15819.022,-659.645,-17048.547,-9208.605,-6637.083,0
14949.086,-17038.936,-14868.984,-11700.825,-15818.933,-659.868,-17048.592,-9209.276,-6637.932,0
14949.086,-17044.322,-14873.879,-11706.101,-15826.466,-658.348,-17052.279,-9201.878,-6631.673,0
14949.086,-17048.055,-14879.266,-11710.548,-15832.746,-659.689,-17056.080,-9207.175,-6627.874,0
14949.086,-17046.312,-14879.399,-11708.000,-15828.857,-658.974,-17052.123,-9214.216,-6630.220,0
14949.086,-17038.311,-14872.717,-11699.261,-15817.234,-655.241,-17041.752,-9204.561,-6630.332,0
14949.087,-17035.627,-14867.464,-11699.104,-15815.021,-653.230,-17039.449,-9201.565,-6630.288,0
14949.087,-17043.250,-14873.969,-11706.189,-15825.325,-655.219,-17045.328,-9204.649,-6623.135,0
14949.087,-17048.771,-14882.104,-11710.660,-15833.953,-657.678,-17053.441,-9206.795,-6629.438,0
14949.087,-17048.994,-14881.657,-11708.716,-15832.255,-657.477,-17051.900,-9202.392,-6630.220,0
14949.087,-17045.082,-14876.628,-11703.977,-15822.554,-655.286,-17040.434,-9201.945,-6616.094,0
14949.088,-17040.568,-14870.995,-11700.177,-15817.905,-652.649,-17037.059,-9204.896,-6619.447,0
14949.088,-17046.535,-14880.540,-11705.520,-15826.175,-654.280,-17045.238,-9209.500,-6626.242,0
14949.088,-17051.297,-14890.375,-11708.850,-15833.350,-655.264,-17051.117,-9209.880,-6630.243,0
14949.144,-17049.396,-14893.906,-11707.486,-15830.824,-655.688,-17048.301,-9213.031,-6625.459,0
14949.145,-17043.629,-14880.606,-11701.965,-15819.917,-654.951,-17041.127,-9208.605,-6623.180,0
14949.145,-17040.322,-14869.543,-11701.585,-15816.608,-654.169,-17040.568,-9206.393,-6623.515,0
14949.145,-17043.898,-14875.354,-11707.374,-15824.319,-654.817,-17047.988,-9204.873,-6625.974,0
14949.145,-17048.994,-14883.825,-11710.705,-15830.869,-655.040,-17054.246,-9202.705,-6631.896,0
14949.145,-17049.330,-14885.346,-11710.213,-15829.326,-656.493,-17053.531,-9215.981,-6629.795,0
14949.146,-17046.088,-14884.295,-11706.704,-15820.319,-655.375,-17046.469,-9214.037,-6623.761,0
14949.146,-17043.160,-14877.276,-11702.681,-15816.184,-655.107,-17046.916,-9205.879,-6639.519,0
14949.146,-17048.658,-14877.567,-11707.911,-15824.879,-656.493,-17054.672,-9201.699,-6641.955,0
14949.146,-17052.973,-14882.373,-11712.627,-15832.120,-659.198,-17060.998,-9211.937,-6640.614,0
14949.146,-17048.816,-14879.177,-11709.096,-15826.645,-658.013,-17056.885,-9214.998,-6643.855,0
14949.147,-17045.709,-14877.611,-11702.681,-15817.122,-657.365,-17050.336,-9213.322,-6640.972,0
14949.147,-17044.076,-14879.668,-11701.116,-15814.440,-656.918,-17047.811,-9216.786,-6635.160,0
14949.147,-17046.736,-14886.508,-11705.140,-15821.190,-657.119,-17051.162,-9214.663,-6635.384,0
14949.147,-17050.312,-14885.569,-11711.130,-15828.946,-657.789,-17056.146,-9219.559,-6636.702,0
14949.204,-17048.480,-14879.422,-11708.895,-15826.175,-657.052,-17053.576,-9220.385,-6638.379,0
14949.204,-17041.551,-14873.320,-11701.585,-15814.373,-654.727,-17043.898,-9215.893,-6635.764,0
14949.205,-17040.568,-14875.398,-11701.965,-15813.010,-654.772,-17044.076,-9220.363,-6639.295,0
14949.205,-17044.658,-14879.601,-11706.547,-15822.196,-655.353,-17050.738,-9223.515,-6644.928,0
14949.205,-17047.475,-14884.966,-11709.923,-15829.081,-654.146,-17051.363,-9219.804,-6636.836,0
14949.205,-17047.094,-14886.820,-11709.900,-15828.701,-654.772,-17049.195,-9217.323,-6632.545,0
14949.205,-17038.266,-14879.266,-11701.272,-15818.240,-653.029,-17041.238,-9219.134,-6626.287,0
14949.205,-17031.895,-14867.151,-11696.735,-15813.703,-651.240,-17037.551,-9221.815,-6625.482,0
14949.205,-17040.656,-14868.582,-11704.134,-15825.281,-654.616,-17046.111,-9214.149,-6634.087,0
14949.206,-17047.652,-14875.645,-11708.648,-15833.193,-654.660,-17050.492,-9208.159,-6626.465,0
14949.206,-17044.748,-14882.216,-11705.407,-15829.237,-653.878,-17047.340,-9201.767,-6623.135,0
14949.206,-17038.557,-14878.148,-11697.942,-15816.943,-653.274,-17040.455,-9200.402,-6622.419,0
14949.206,-17035.918,-14870.348,-11694.634,-15812.116,-652.827,-17037.773,-9207.332,-6625.906,0
14949.206,-17042.244,-14872.762,-11701.451,-15820.498,-655.018,-17044.121,-9214.082,-6631.025,0
14949.206,-17047.027,-14881.501,-11705.520,-15827.807,-654.750,-17049.777,-9214.641,-6624.945,0
14949.265,-17045.262,-14888.273,-11704.290,-15825.616,-656.583,-17051.520,-9218.597,-6629.527,0
14949.265,-17035.359,-14878.976,-11695.014,-15813.010,-656.448,-17044.748,-9223.470,-6635.853,0
14949.265,-17034.176,-14870.034,-11694.433,-15811.780,-655.063,-17042.736,-9231.807,-6638.200,0
14949.265,-17040.568,-14872.963,-11702.367,-15822.554,-653.923,-17047.475,-9219.715,-6628.007,0
14949.265,-17043.674,-14876.985,-11704.469,-15829.662,-653.565,-17053.979,-9203.264,-6634.981,0
14949.265,-17042.668,-14878.461,-11701.228,-15827.762,-654.325,-17055.633,-9201.587,-6638.468,0
14949.266,-17037.863,-14874.996,-11694.925,-15817.592,-652.023,-17044.926,-9208.047,-6620.944,0
14949.266,-17041.059,-14874.975,-11694.812,-15817.011,-650.346,-17040.500,-9198.078,-6612.562,0
14949.266,-17045.754,-14878.438,-11699.439,-15825.684,-652.179,-17046.893,-9201.364,-6618.262,0
14949.266,-17046.580,-14878.818,-11704.826,-15833.306,-653.811,-17052.838,-9204.113,-6622.129,0
14949.266,-17044.568,-14875.801,-11704.982,-15832.210,-655.778,-17052.078,-9211.758,-6626.778,0
14949.267,-17035.426,-14863.978,-11694.857,-15817.614,-651.777,-17040.926,-9209.299,-6623.537,0
14949.267,-17033.482,-14863.553,-11693.718,-15814.396,-651.151,-17039.092,-9209.522,-6623.247,0
14949.267,-17038.400,-14878.640,-11699.238,-15823.672,-651.151,-17044.770,-9205.588,-6623.292,0
14949.267,-17043.586,-14890.934,-11704.401,-15832.054,-651.978,-17048.816,-9204.627,-6622.867,0
14949.325,-17044.189,-14884.720,-11703.552,-15829.617,-652.582,-17047.340,-9205.655,-6627.493,0
14949.325,-17038.936,-14866.905,-11697.003,-15818.263,-652.939,-17041.820,-9209.098,-6631.740,0
14949.325,-17040.166,-14862.569,-11698.657,-15817.524,-651.576,-17035.963,-9209.567,-6613.099,0
14949.325,-17045.418,-14868.201,-11705.296,-15825.191,-652.202,-17041.373,-9214.596,-6618.039,0
14949.326,-17048.637,-14871.957,-11709.609,-15831.360,-652.202,-17047.742,-9217.993,-6625.661,0
14949.326,-17047.430,-14874.550,-11706.167,-15828.857,-652.425,-17046.379,-9210.260,-6626.443,0
14949.326,-17041.283,-14868.805,-11697.360,-15817.436,-650.235,-17036.275,-9206.772,-6622.017,0
14949.326,-17042.244,-14868.045,-11698.590,-15817.033,-651.106,-17033.303,-9212.897,-6616.161,0
14949.326,-17045.037,-14873.365,-11702.904,-15823.604,-652.269,-17038.086,-9219.916,-6619.737,0
14949.327,-17048.414,-14883.580,-11706.257,-15830.601,-653.520,-17044.301,-9222.710,-6625.750,0
14949.327,-17049.508,-14887.089,-11705.765,-15830.153,-654.169,-17046.826,-9213.166,-6630.019,0
14949.327,-17045.463,-14877.970,-11699.551,-15820.788,-653.878,-17041.082,-9209.790,-6624.051,0
14949.327,-17040.277,-14871.130,-11696.892,-15815.312,-651.799,-17037.930,-9211.959,-6626.219,0
14949.327,-17044.277,-14880.138,-11701.697,-15822.062,-652.045,-17044.592,-9212.629,-6625.504,0
14949.328,-17047.676,-14882.328,-11706.592,-15828.098,-653.923,-17050.336,-9220.363,-6630.689,0
14949.385,-17048.168,-14883.490,-11707.531,-15825.951,-654.705,-17049.619,-9217.568,-6627.270,0
14949.385,-17044.055,-14878.438,-11701.049,-15815.111,-654.034,-17043.787,-9218.463,-6629.773,0
14949.386,-17042.691,-14875.533,-11701.764,-15812.429,-654.593,-17043.562,-9225.102,-6636.300,0
14949.386,-17043.295,-14876.472,-11707.084,-15819.380,-656.113,-17050.514,-9231.427,-6640.792,0
14949.386,-17040.656,-14872.561,-11710.392,-15825.035,-657.700,-17054.582,-9241.642,-6641.553,0
14949.386,-17038.803,-14873.142,-11709.028,-15823.939,-658.862,-17051.721,-9241.999,-6637.462,0
14949.386,-17035.740,-14873.119,-11702.948,-15815.558,-657.611,-17042.914,-9228.275,-6633.327,0
14949.387,-17035.225,-14870.258,-11699.864,-15813.055,-655.778,-17040.881,-9216.541,-6637.060,0
14949.387,-17040.010,-14875.287,-11705.296,-15822.487,-657.566,-17048.055,-9224.543,-6639.787,0
14949.387,-17046.133,-14881.434,-11709.722,-15830.087,-656.583,-17052.727,-9226.286,-6638.535,0
14949.387,-17045.283,-14884.966,-11708.156,-15827.337,-655.823,-17051.520,-9223.179,-6638.714,0
14949.387,-17041.439,-14882.596,-11702.658,-15817.704,-654.593,-17045.105,-9225.392,-6639.563,0
14949.387,-17036.879,-14871.644,-11697.986,-15813.546,-651.576,-17039.383,-9222.755,-6636.278,0
14949.388,-17038.824,-14873.097,-11701.630,-15821.727,-652.090,-17043.451,-9221.279,-6635.473,0
14949.388,-17042.199,-14877.857,-11705.743,-15829.483,-651.933,-17048.145,-9217.233,-6633.148,0
14949.445,-17037.236,-14873.432,-11702.814,-15825.750,-651.911,-17044.814,-9218.284,-6632.254,0
14949.445,-17028.990,-14864.491,-11695.081,-15813.502,-650.793,-17035.137,-9217.211,-6628.097,0
14949.445,-17027.670,-14863.396,-11695.081,-15811.669,-652.380,-17033.303,-9225.168,-6628.857,0
14949.445,-17032.969,-14868.090,-11696.802,-15818.754,-651.218,-17037.930,-9216.675,-6626.555,0
14949.446,-17040.545,-14877.254,-11701.295,-15827.069,-651.978,-17043.629,-9209.008,-6623.425,0
14949.446,-17040.010,-14876.852,-11698.747,-15824.499,-652.626,-17043.854,-9213.725,-6623.850,0
14949.446,-17032.096,-14867.106,-11689.180,-15811.735,-651.129,-17037.684,-9216.921,-6629.460,0
14949.446,-17032.900,-14863.262,-11689.560,-15810.417,-651.151,-17035.918,-9220.475,-6631.763,0
14949.446,-17039.719,-14869.431,-11696.132,-15820.341,-650.726,-17040.881,-9219.514,-6624.319,0
14949.446,-17046.402,-14875.466,-11699.015,-15828.768,-649.877,-17045.082,-9210.975,-6619.156,0
14949.446,-17045.262,-14876.338,-11694.812,-15826.063,-651.643,-17045.082,-9211.914,-6624.811,0
14949.446,-17037.080,-14872.292,-11686.498,-15813.948,-651.039,-17037.662,-9208.852,-6629.349,0
14949.446,-17035.494,-14873.387,-11685.895,-15810.708,-650.972,-17035.963,-9215.490,-6631.315,0
14949.446,-17040.701,-14873.007,-11691.661,-15817.458,-650.816,-17042.221,-9207.913,-6633.417,0
14949.446,-17049.105,-14879.758,-11700.199,-15827.807,-653.274,-17049.330,-9209.991,-6619.335,0
14949.506,-17047.250,-14877.008,-11698.747,-15824.633,-653.945,-17048.883,-9219.849,-6625.794,0
14949.506,-17043.139,-14869.945,-11694.522,-15814.820,-651.911,-17041.260,-9215.780,-6625.794,0
14949.506,-17040.701,-14868.201,-11693.807,-15812.496,-651.397,-17039.719,-9224.855,-6627.918,0
14949.506,-17045.307,-14876.137,-11696.869,-15820.721,-651.039,-17043.830,-9217.949,-6626.197,0
14949.507,-17046.982,-14880.316,-11700.513,-15827.293,-652.827,-17047.652,-9220.631,-6627.382,0
14949.507,-17043.719,-14877.053,-11699.193,-15824.364,-654.370,-17045.955,-9218.172,-6628.208,0
14949.507,-17037.260,-14870.705,-11692.242,-15814.194,-653.185,-17037.975,-9218.485,-6628.231,0
14949.507,-17036.633,-14871.822,-11692.265,-15812.295,-651.956,-17037.080,-9221.368,-6632.344,0
14949.507,-17040.344,-14872.851,-11697.316,-15818.933,-650.056,-17041.863,-9219.715,-6631.896,0
14949.508,-17044.971,-14877.589,-11705.206,-15828.500,-652.984,-17048.279,-9222.911,-6633.193,0
14949.508,-17043.742,-14876.293,-11704.401,-15824.789,-653.766,-17044.166,-9229.191,-6631.718,0
14949.508,-17040.746,-14873.432,-11698.769,-15814.351,-654.504,-17036.924,-9232.075,-6631.360,0
14949.508,-17036.992,-14870.459,-11696.354,-15809.411,-653.096,-17034.756,-9233.438,-6631.807,0
14949.508,-17039.830,-14876.784,-11699.976,-15816.698,-654.392,-17042.512,-9227.762,-6636.255,0
14949.509,-17043.629,-14881.523,-11704.312,-15824.856,-655.487,-17049.441,-9222.039,-6635.272,0
14949.565,-17041.104,-14875.645,-11701.340,-15821.995,-654.638,-17049.105,-9222.620,-6638.379,0
14949.565,-17035.092,-14866.078,-11692.801,-15810.306,-651.509,-17040.590,-9215.893,-6637.887,0
14949.565,-17035.404,-14860.669,-11694.857,-15810.283,-651.866,-17038.311,-9221.994,-6639.094,0
14949.565,-17041.439,-14868.560,-11701.519,-15819.716,-652.313,-17044.189,-9225.034,-6639.787,0
14949.565,-17046.490,-14877.030,-11706.189,-15827.940,-654.616,-17050.961,-9229.616,-6639.653,0
14949.565,-17044.189,-14873.007,-11703.977,-15825.281,-653.811,-17049.508,-9225.615,-6642.872,0
14949.566,-17038.041,-14866.480,-11697.696,-15815.268,-650.637,-17038.779,-9218.352,-6626.242,0
14949.566,-17036.119,-14862.882,-11694.478,-15812.250,-649.117,-17036.299,-9220.631,-6628.991,0
14949.566,-17039.607,-14866.011,-11700.043,-15820.207,-649.452,-17040.389,-9221.860,-6625.705,0
14949.566,-17045.307,-14873.275,-11705.184,-15829.014,-650.592,-17045.775,-9220.899,-6624.833,0
14949.566,-17044.166,-14876.047,-11701.340,-15826.577,-648.893,-17043.385,-9214.439,-6619.872,0
14949.566,-17036.611,-14870.549,-11692.868,-15813.993,-646.770,-17034.666,-9218.128,-6621.503,0
14949.566,-17034.398,-14863.508,-11692.734,-15811.468,-646.748,-17033.572,-9224.229,-6628.768,0
14949.566,-17040.656,-14869.186,-11700.468,-15822.196,-650.123,-17041.662,-9230.488,-6631.896,0
14949.566,-17044.256,-14875.466,-11704.558,-15829.104,-650.793,-17046.111,-9229.080,-6631.919,0
14949.625,-17043.562,-14874.661,-11701.519,-15826.063,-650.458,-17043.451,-9220.296,-6625.929,0
14949.625,-17039.986,-14869.677,-11696.713,-15815.916,-648.983,-17035.918,-9214.417,-6626.599,0
14949.625,-17039.047,-14868.358,-11696.422,-15813.792,-648.670,-17035.740,-9213.948,-6632.679,0
14949.626,-17044.703,-14872.448,-11702.435,-15822.264,-650.771,-17042.400,-9218.508,-6631.651,0
14949.626,-17047.117,-14873.745,-11706.436,-15827.538,-650.302,-17046.357,-9228.856,-6629.170,0
14949.626,-17048.346,-14873.789,-11705.653,-15826.197,-651.062,-17045.709,-9232.522,-6626.197,0
14949.626,-17042.467,-14868.470,-11697.383,-15815.356,-649.519,-17037.482,-9218.463,-6628.455,0
14949.626,-17040.568,-14868.313,-11697.785,-15813.188,-650.033,-17036.477,-9216.116,-6630.086,0
14949.626,-17047.877,-14876.248,-11703.798,-15823.336,-651.039,-17042.848,-9219.804,-6629.013,0
14949.626,-17050.492,-14881.813,-11705.027,-15830.354,-650.749,-17047.676,-9214.238,-6627.225,0
14949.626,-17049.285,-14882.932,-11704.759,-15828.857,-653.319,-17048.436,-9217.435,-6630.846,0
14949.626,-17040.568,-14872.136,-11698.366,-15817.302,-652.604,-17040.836,-9225.348,-6633.528,0
14949.626,-17036.365,-14866.928,-11697.138,-15814.552,-651.687,-17038.422,-9226.957,-6633.707,0
14949.626,-17039.518,-14870.794,-11698.099,-15821.102,-651.218,-17043.674,-9221.368,-6634.400,0
14949.626,-17043.025,-14874.013,-11700.513,-15828.478,-651.911,-17049.330,-9221.793,-6630.734,0
14949.686,-17041.953,-14874.862,-11699.484,-15827.226,-652.045,-17048.168,-9219.871,-6629.975,0
14949.686,-17034.711,-14865.721,-11692.577,-15815.401,-649.609,-17037.930,-9220.296,-6630.399,0
14949.686,-17032.074,-14863.105,-11690.432,-15812.094,-647.061,-17031.180,-9226.286,-6620.386,0
14949.686,-17038.467,-14867.308,-11695.931,-15821.660,-647.910,-17037.260,-9224.141,-6621.525,0
14949.686,-17045.439,-14874.840,-11702.077,-15831.249,-647.619,-17044.145,-9206.214,-6622.084,0
14949.686,-17046.000,-14878.685,-11702.546,-15830.332,-648.446,-17042.736,-9211.198,-6621.928,0
14949.686,-17039.383,-14870.012,-11693.226,-15818.688,-646.547,-17032.969,-9203.085,-6616.832,0
14949.686,-17037.305,-14863.396,-11691.370,-15815.849,-645.451,-17029.436,-9206.438,-6612.942,0
14949.686,-17042.580,-14872.181,-11697.830,-15824.499,-646.971,-17037.885,-9208.562,-6620.251,0
14949.686,-17047.408,-14877.254,-11703.485,-15831.986,-648.379,-17044.346,-9210.192,-6623.850,0
14949.686,-17044.301,-14871.510,-11703.083,-15829.170,-649.095,-17042.289,-9214.618,-6624.208,0
14949.687,-17039.852,-14863.508,-11697.719,-15819.335,-648.804,-17035.225,-9215.155,-6623.515,0
14949.687,-17038.623,-14862.927,-11696.198,-15817.167,-649.519,-17035.113,-9225.369,-6632.992,0
14949.687,-17042.154,-14871.599,-11701.943,-15825.259,-650.793,-17040.656,-9227.493,-6634.512,0
14949.687,-17045.150,-14872.091,-11707.084,-15832.300,-649.966,-17043.271,-9224.252,-6626.309,0
14949.746,-17045.238,-14872.762,-11707.509,-15830.266,-649.676,-17041.998,-9226.733,-6624.051,0
14949.746,-17041.551,-14868.067,-11703.061,-15819.917,-650.056,-17037.551,-9229.550,-6628.432,0
14949.746,-17040.881,-14867.129,-11702.390,-15816.742,-651.419,-17038.287,-9234.914,-6633.506,0
14949.746,-17044.502,-14874.170,-11708.000,-15824.275,-654.593,-17045.262,-9236.277,-6638.379,0
14949.746,-17048.838,-14878.461,-11712.292,-15832.680,-656.694,-17052.906,-9231.024,-6635.138,0
14949.746,-17045.373,-14874.013,-11708.357,-15828.365,-655.487,-17051.699,-9227.023,-6635.607,0
14949.746,-17041.127,-14867.979,-11701.764,-15816.430,-653.386,-17042.938,-9225.414,-6630.265,0
14949.746,-17039.562,-14864.603,-11698.858,-15813.188,-653.766,-17041.842,-9223.246,-6631.025,0
14949.747,-17041.619,-14870.213,-11704.021,-15820.542,-655.755,-17047.854,-9231.852,-6636.590,0
14949.747,-17043.562,-14872.516,-11710.124,-15828.835,-658.505,-17053.711,-9238.378,-6638.558,0
14949.747,-17041.373,-14869.186,-11706.771,-15827.092,-656.828,-17049.777,-9217.904,-6630.243,0
14949.747,-17034.197,-14866.614,-11697.271,-15815.021,-654.370,-17039.875,-9219.715,-6632.120,0
14949.747,-17029.393,-14863.061,-11693.852,-15809.903,-651.777,-17035.471,-9220.050,-6629.013,0
14949.747,-17035.225,-14866.838,-11701.049,-15819.693,-651.866,-17040.680,-9224.252,-6621.905,0
14949.747,-17041.953,-14872.225,-11707.039,-15828.433,-652.537,-17045.172,-9231.069,-6622.375,0
14949.805,-17040.523,-14872.918,-11704.446,-15827.069,-651.710,-17041.953,-9225.057,-6624.364,0
14949.805,-17032.186,-14866.525,-11695.863,-15816.072,-648.782,-17032.008,-9221.480,-6624.744,0
14949.805,-17030.129,-14863.820,-11694.857,-15812.854,-649.072,-17030.801,-9228.723,-6631.293,0
14949.805,-17034.242,-14869.588,-11700.669,-15820.274,-649.832,-17037.908,-9230.242,-6633.640,0
14949.806,-17038.221,-14873.678,-11706.257,-15828.119,-652.492,-17046.268,-9231.539,-6636.546,0
14949.806,-17036.275,-14868.805,-11706.302,-15826.801,-655.375,-17049.330,-9230.645,-6640.614,0
14949.806,-17027.111,-14859.596,-11696.757,-15813.814,-654.124,-17041.529,-9233.104,-6636.166,0
14949.806,-17027.426,-14858.971,-11697.003,-15811.735,-656.270,-17041.217,-9246.156,-6636.054,0
14949.806,-17034.666,-14867.755,-11703.642,-15819.626,-656.426,-17048.838,-9240.748,-6635.428,0
14949.806,-17038.377,-14876.137,-11706.682,-15826.354,-656.404,-17054.336,-9235.785,-6632.456,0
14949.807,-17036.969,-14876.360,-11704.066,-15823.873,-656.515,-17052.660,-9226.688,-6631.695,0
14949.807,-17032.008,-14872.292,-11696.779,-15813.747,-655.621,-17045.775,-9227.962,-6634.020,0
14949.807,-17031.426,-14869.186,-11694.231,-15810.819,-654.101,-17043.184,-9235.003,-6636.479,0
14949.807,-17035.426,-14868.850,-11697.271,-15817.682,-652.023,-17046.357,-9225.437,-6630.958,0
14949.807,-17036.746,-14871.241,-11700.579,-15824.432,-652.984,-17051.609,-9227.403,-6630.846,0
14949.865,-17036.590,-14871.018,-11701.026,-15823.939,-654.571,-17051.990,-9229.281,-6634.221,0
14949.865,-17028.387,-14862.055,-11691.259,-15811.780,-650.704,-17041.596,-9227.516,-6632.813,0
14949.866,-17026.643,-14857.987,-11692.242,-15810.931,-650.860,-17039.674,-9231.985,-6636.881,0
14949.866,-17029.951,-14859.574,-11696.333,-15817.815,-648.849,-17042.848,-9232.611,-6637.797,0
14949.866,-17036.812,-14867.174,-11702.948,-15827.002,-650.972,-17048.436,-9235.763,-6635.987,0
14949.866,-17039.518,-14872.091,-11702.993,-15826.532,-651.062,-17045.619,-9235.271,-6626.041,0
14949.866,-17035.695,-14865.788,-11693.740,-15814.619,-647.284,-17037.080,-9217.390,-6628.208,0
14949.867,-17036.992,-14864.559,-11694.344,-15813.859,-647.396,-17037.371,-9222.710,-6633.908,0
14949.867,-17040.322,-14869.207,-11696.958,-15821.123,-648.379,-17042.803,-9223.827,-6633.461,0
14949.867,-17042.982,-14867.554,-11700.938,-15829.416,-651.218,-17048.055,-9227.516,-6639.049,0
14949.867,-17040.770,-14861.451,-11700.065,-15827.762,-651.777,-17045.598,-9228.119,-6636.479,0
14949.868,-17037.818,-14860.088,-11695.192,-15816.832,-648.871,-17033.572,-9221.056,-6617.010,0
14949.868,-17032.834,-14861.809,-11692.957,-15812.049,-647.664,-17032.119,-9223.872,-6624.431,0
14949.868,-17035.807,-14865.095,-11697.875,-15820.609,-650.592,-17042.154,-9228.655,-6630.980,0
14949.868,-17041.305,-14870.169,-11701.228,-15828.924,-652.984,-17051.186,-9229.125,-6637.619,0
14949.926,-17038.086,-14867.934,-11696.288,-15823.896,-651.151,-17048.502,-9223.983,-6633.171,0
14949.926,-17030.264,-14860.468,-11687.303,-15812.228,-650.145,-17039.740,-9222.464,-6627.158,0
14949.926,-17031.783,-14860.490,-11688.599,-15811.132,-650.704,-17037.506,-9224.051,-6625.370,0
14949.926,-17038.242,-14867.576,-11694.925,-15818.866,-652.492,-17045.977,-9230.443,-6631.807,0
14949.926,-17044.994,-14875.443,-11700.825,-15826.354,-654.750,-17054.426,-9227.828,-6635.764,0
14949.927,-17043.965,-14874.304,-11700.133,-15824.565,-655.823,-17053.174,-9229.304,-6635.316,0
14949.927,-17034.689,-14861.317,-11691.281,-15810.663,-653.029,-17042.020,-9228.924,-6633.126,0
14949.927,-17031.627,-14855.282,-11690.968,-15808.495,-653.051,-17039.896,-9227.627,-6637.038,0
14949.927,-17035.068,-14857.339,-11698.612,-15817.011,-654.481,-17045.418,-9233.104,-6638.066,0
14949.927,-17039.428,-14860.602,-11705.027,-15825.080,-655.845,-17049.934,-9237.283,-6636.814,0
14949.927,-17037.260,-14857.138,-11703.351,-15824.521,-655.934,-17047.273,-9233.192,-6636.054,0
14949.928,-17027.514,-14847.549,-11693.650,-15812.720,-651.375,-17034.711,-9220.854,-6627.292,0
14949.928,-17024.139,-14844.576,-11692.443,-15810.528,-650.033,-17032.252,-9217.211,-6625.482,0
14949.928,-17027.670,-14849.181,-11698.210,-15818.128,-651.911,-17041.217,-9226.152,-6631.182,0
14949.928,-17030.309,-14851.505,-11701.295,-15824.767,-650.860,-17047.363,-9220.251,-6628.946,0
14949.986,-17027.961,-14849.851,-11699.953,-15824.923,-652.492,-17048.189,-9221.480,-6630.243,0
14949.986,-17018.977,-14839.949,-11691.125,-15812.339,-650.927,-17041.574,-9225.638,-6636.658,0
14949.986,-17017.770,-14840.016,-11688.733,-15809.031,-649.676,-17039.137,-9222.017,-6630.623,0
14949.986,-17021.100,-14845.381,-11693.404,-15817.302,-652.604,-17047.250,-9226.152,-6636.009,0
14949.986,-17023.871,-14847.772,-11697.003,-15823.604,-652.403,-17051.363,-9221.793,-6626.689,0
14949.986,-17021.412,-14844.710,-11696.534,-15821.548,-654.504,-17049.709,-9233.305,-6621.257,0
14949.986,-17012.270,-14835.434,-11688.085,-15808.473,-652.872,-17041.551,-9219.290,-6626.599,0
14949.986,-17009.969,-14834.875,-11687.102,-15805.611,-653.990,-17040.770,-9214.819,-6633.685,0
14949.986,-17016.004,-14837.714,-11694.746,-15814.508,-655.823,-17044.635,-9224.945,-6628.343,0
14949.986,-17020.607,-14841.491,-11699.663,-15822.487,-657.231,-17049.174,-9229.191,-6631.673,0
14949.986,-17020.361,-14842.989,-11697.651,-15819.671,-656.650,-17047.318,-9230.511,-6633.305,0
14949.986,-17019.490,-14840.150,-11693.427,-15810.148,-653.990,-17037.193,-9229.907,-6621.056,0
14949.987,-17020.004,-14838.921,-11690.499,-15806.640,-650.369,-17031.381,-9230.958,-6622.151,0
14949.987,-17027.805,-14847.615,-11696.020,-15815.916,-649.586,-17037.014,-9232.299,-6625.459,0
14949.987,-17035.873,-14856.064,-11702.055,-15825.058,-649.944,-17043.496,-9223.425,-6624.945,0
14950.046,-17034.086,-14855.104,-11701.720,-15822.934,-651.017,-17042.982,-9228.275,-6626.532,0
14950.046,-17029.906,-14851.616,-11696.892,-15811.893,-649.676,-17037.193,-9231.539,-6629.147,0
14950.046,-17028.564,-14851.304,-11695.997,-15807.847,-647.843,-17034.020,-9230.376,-6630.421,0
14950.047,-17033.861,-14856.132,-11700.602,-15815.804,-647.731,-17038.689,-9225.325,-6632.232,0
14950.047,-17040.031,-14864.044,-11706.189,-15825.505,-651.442,-17046.201,-9230.175,-6635.294,0
14950.047,-17040.166,-14863.978,-11703.888,-15823.672,-649.966,-17043.898,-9228.275,-6631.204,0
14950.047,-17036.188,-14857.786,-11698.099,-15813.681,-646.591,-17033.861,-9231.360,-6623.761,0
14950.047,-17033.729,-14852.354,-11697.182,-15810.976,-643.596,-17029.883,-9220.341,-6617.391,0
14950.047,-17036.410,-14851.975,-11702.032,-15819.357,-643.551,-17034.377,-9220.586,-6613.255,0
14950.048,-17040.211,-14857.361,-11706.257,-15828.098,-645.831,-17042.199,-9221.279,-6618.955,0
14950.048,-17038.713,-14855.752,-11704.200,-15826.689,-647.172,-17041.373,-9223.022,-6618.463,0
14950.048,-17031.492,-14845.693,-11696.847,-15816.027,-646.100,-17033.639,-9229.169,-6619.469,0
14950.048,-17028.811,-14840.933,-11694.478,-15812.675,-644.736,-17030.688,-9228.007,-6623.247,0
14950.048,-17033.393,-14846.968,-11700.177,-15821.146,-645.675,-17035.359,-9229.639,-6620.766,0
14950.049,-17036.029,-14851.862,-11703.843,-15827.874,-647.172,-17041.730,-9225.705,-6625.929,0
14950.106,-17033.572,-14852.936,-11701.004,-15824.901,-646.345,-17039.004,-9220.005,-6623.425,0
14950.106,-17026.486,-14843.101,-11694.611,-15813.837,-644.535,-17028.363,-9220.341,-6616.586,0
14950.107,-17023.736,-14839.479,-11693.695,-15809.657,-644.714,-17027.066,-9219.849,-6620.564,0
14950.107,-17027.023,-14845.671,-11697.025,-15816.407,-646.614,-17033.684,-9222.374,-6624.744,0
14950.107,-17030.174,-14852.108,-11700.579,-15823.672,-646.167,-17039.809,-9221.860,-6623.984,0
14950.107,-17032.164,-14854.410,-11702.010,-15823.783,-647.754,-17041.461,-9224.543,-6627.382,0
14950.107,-17026.709,-14846.453,-11697.495,-15813.055,-647.418,-17034.867,-9227.091,-6629.170,0
14950.108,-17027.693,-14844.777,-11698.970,-15811.222,-647.351,-17031.873,-9230.979,-6627.404,0
14950.108,-17034.465,-14849.023,-11705.765,-15818.866,-646.904,-17035.248,-9228.946,-6626.868,0
14950.108,-17043.139,-14858.009,-11713.097,-15828.343,-648.893,-17040.680,-9229.147,-6625.526,0
14950.108,-17043.920,-14861.742,-11711.956,-15827.069,-649.095,-17040.992,-9225.728,-6623.850,0
14950.109,-17035.158,-14852.936,-11703.105,-15814.865,-646.234,-17031.492,-9226.241,-6619.134,0
14950.109,-17030.441,-14847.191,-11702.971,-15812.094,-646.278,-17029.393,-9232.098,-6622.621,0
14950.109,-17032.611,-14855.036,-11707.732,-15819.938,-646.971,-17035.338,-9234.176,-6626.667,0
14950.109,-17035.584,-14856.512,-11711.867,-15827.874,-647.687,-17040.590,-9232.969,-6623.873,0
14950.165,-17032.654,-14850.187,-11709.453,-15825.862,-647.418,-17039.809,-9224.923,-6623.671,0
14950.166,-17024.117,-14840.888,-11701.228,-15813.412,-645.273,-17029.102,-9227.940,-6617.547,0
14950.166,-17022.150,-14838.295,-11698.881,-15810.887,-642.859,-17023.982,-9225.437,-6606.192,0
14950.166,-17027.312,-14844.441,-11701.384,-15818.688,-643.306,-17029.928,-9221.727,-6610.752,0
14950.166,-17033.861,-14850.029,-11707.844,-15827.628,-646.569,-17039.449,-9220.005,-6619.134,0
14950.166,-17028.945,-14843.838,-11704.759,-15823.471,-645.809,-17037.662,-9222.821,-6619.492,0
14950.166,-17019.713,-14837.714,-11697.316,-15811.445,-645.228,-17031.807,-9215.981,-6623.135,0
14950.166,-17016.920,-14836.775,-11696.153,-15808.294,-645.988,-17029.637,-9218.440,-6623.448,0
14950.167,-17022.307,-14841.156,-11699.306,-15815.245,-647.016,-17033.773,-9218.775,-6622.062,0
14950.167,-17028.363,-14846.968,-11705.251,-15825.080,-648.759,-17038.891,-9214.618,-6615.110,0
14950.167,-17023.000,-14842.631,-11701.519,-15823.091,-649.631,-17040.211,-9221.413,-6617.771,0
14950.167,-17019.334,-14840.865,-11695.438,-15812.764,-649.117,-17034.221,-9227.202,-6623.515,0
14950.167,-17025.123,-14843.436,-11696.176,-15810.864,-647.619,-17031.537,-9227.270,-6625.772,0
14950.167,-17031.002,-14846.722,-11702.032,-15817.704,-647.172,-17036.521,-9231.114,-6627.203,0
14950.167,-17034.086,-14854.656,-11708.425,-15825.058,-649.564,-17043.115,-9234.668,-6629.460,0
14950.225,-17031.426,-14855.707,-11707.889,-15823.672,-652.358,-17044.189,-9243.430,-6632.679,0
14950.226,-17027.447,-14850.298,-11699.887,-15812.004,-648.826,-17034.107,-9236.612,-6625.996,0
14950.226,-17028.207,-14848.577,-11698.054,-15809.300,-646.010,-17030.688,-9231.293,-6627.158,0
14950.226,-17034.510,-14854.880,-11704.960,-15819.045,-648.625,-17039.830,-9234.444,-6634.177,0
14950.226,-17035.449,-14859.351,-11709.162,-15825.505,-650.682,-17047.564,-9237.954,-6641.553,0
14950.226,-17031.627,-14856.557,-11709.162,-15822.912,-651.084,-17045.352,-9245.732,-6636.389,0
14950.227,-17024.496,-14844.956,-11702.390,-15811.557,-649.586,-17036.209,-9252.571,-6632.209,0
14950.227,-17024.385,-14843.682,-11701.384,-15807.377,-646.703,-17034.131,-9244.793,-6636.613,0
14950.227,-17031.135,-14852.511,-11707.441,-15816.340,-646.949,-17043.586,-9237.484,-6640.279,0
14950.227,-17035.404,-14858.367,-11710.995,-15823.493,-645.608,-17047.451,-9238.557,-6633.461,0
14950.227,-17036.230,-14860.379,-11710.548,-15823.537,-645.384,-17046.445,-9236.881,-6633.014,0
14950.227,-17027.916,-14848.040,-11702.993,-15811.803,-643.641,-17037.148,-9235.830,-6632.701,0
14950.228,-17023.066,-14843.212,-11701.496,-15806.751,-642.926,-17033.438,-9240.367,-6633.104,0
14950.228,-17029.123,-14850.678,-11706.368,-15815.178,-643.797,-17040.076,-9228.745,-6634.758,0
14950.228,-17031.582,-14855.014,-11708.000,-15821.794,-646.144,-17046.021,-9230.913,-6635.786,0
14950.286,-17026.777,-14851.952,-11703.753,-15818.911,-647.955,-17044.680,-9239.742,-6634.244,0
14950.286,-17018.484,-14843.011,-11692.466,-15806.886,-646.435,-17034.867,-9238.378,-6632.031,0
14950.286,-17015.846,-14838.004,-11690.275,-15803.733,-645.407,-17031.314,-9239.139,-6635.138,0
14950.287,-17022.820,-14842.050,-11697.271,-15812.228,-645.228,-17036.723,-9229.103,-6635.629,0
14950.287,-17030.600,-14848.532,-11703.463,-15822.107,-645.608,-17041.842,-9225.437,-6627.337,0
14950.287,-17031.203,-14847.526,-11702.211,-15821.481,-644.222,-17039.115,-9221.302,-6621.905,0
14950.287,-17029.234,-14843.995,-11696.266,-15812.652,-643.171,-17032.900,-9225.750,-6625.325,0
14950.287,-17029.549,-14843.480,-11693.919,-15808.740,-640.646,-17030.555,-9227.984,-6624.923,0
14950.288,-17036.500,-14850.655,-11700.177,-15817.860,-641.540,-17038.332,-9231.919,-6626.599,0
14950.288,-17039.607,-14856.177,-11703.999,-15825.058,-641.160,-17043.070,-9228.186,-6625.683,0
14950.288,-17039.160,-14857.808,-11705.140,-15826.019,-644.088,-17044.748,-9229.438,-6627.091,0
14950.288,-17030.555,-14848.309,-11697.606,-15813.993,-642.769,-17035.740,-9229.952,-6625.862,0
14950.288,-17027.582,-14842.363,-11695.908,-15809.479,-641.093,-17031.850,-9232.299,-6627.650,0
14950.289,-17033.125,-14848.800,-11702.904,-15818.933,-642.456,-17038.488,-9230.689,-6629.795,0
14950.289,-17037.438,-14854.098,-11709.118,-15827.449,-645.273,-17045.574,-9233.126,-6635.652,0
14950.346,-17035.740,-14850.790,-11708.716,-15824.655,-645.004,-17043.025,-9234.132,-6630.399,0
14950.346,-17031.023,-14843.324,-11703.508,-15813.792,-645.071,-17034.801,-9237.730,-6629.371,0
14950.347,-17029.057,-14840.776,-11702.502,-15810.708,-645.205,-17033.617,-9244.727,-6635.361,0
14950.347,-17033.146,-14845.492,-11707.776,-15818.844,-645.854,-17037.773,-9239.519,-6634.870,0
14950.347,-17035.338,-14849.091,-11711.800,-15826.801,-647.038,-17041.863,-9232.209,-6629.572,0
14950.347,-17031.672,-14847.571,-11709.118,-15824.298,-645.943,-17038.980,-9231.673,-6625.191,0
14950.347,-17024.586,-14840.799,-11700.825,-15813.144,-645.742,-17032.723,-9233.953,-6627.694,0
14950.348,-17020.518,-14835.345,-11697.070,-15808.875,-646.211,-17031.672,-9235.897,-6631.718,0
14950.348,-17026.486,-14844.084,-11701.831,-15816.139,-643.909,-17035.539,-9228.565,-6626.957,0
14950.348,-17032.164,-14849.694,-11707.710,-15824.565,-644.311,-17040.635,-9226.756,-6626.488,0
14950.348,-17028.096,-14844.196,-11705.608,-15822.085,-644.155,-17040.076,-9234.713,-6632.031,0
14950.348,-17022.619,-14837.714,-11698.546,-15811.222,-642.411,-17032.789,-9235.964,-6636.836,0
14950.349,-17024.027,-14837.669,-11698.345,-15809.143,-641.719,-17029.504,-9235.629,-6635.428,0
14950.349,-17029.057,-14844.062,-11704.491,-15817.011,-643.037,-17034.846,-9235.227,-6630.623,0
14950.349,-17032.230,-14849.762,-11709.923,-15824.990,-645.630,-17043.250,-9238.691,-6637.328,0
14950.406,-17031.738,-14848.688,-11711.130,-15824.923,-646.815,-17043.697,-9239.474,-6642.581,0
14950.406,-17026.865,-14842.027,-11705.966,-15814.574,-645.541,-17033.930,-9239.340,-6639.049,0
14950.406,-17028.117,-14844.620,-11704.982,-15812.429,-643.708,-17030.621,-9242.491,-6627.158,0
14950.407,-17033.393,-14851.817,-11710.615,-15821.168,-645.563,-17039.674,-9246.269,-6633.372,0
14950.407,-17036.410,-14856.892,-11713.700,-15828.075,-645.854,-17046.604,-9244.078,-6637.306,0
14950.407,-17036.633,-14859.417,-11712.493,-15826.756,-646.502,-17046.826,-9244.167,-6638.446,0
14950.407,-17032.855,-14855.617,-11705.563,-15815.580,-644.267,-17040.455,-9245.866,-6639.206,0
14950.407,-17031.158,-14849.583,-11703.418,-15811.557,-644.021,-17038.443,-9248.660,-6641.620,0
14950.407,-17035.137,-14852.265,-11709.498,-15819.604,-645.518,-17045.328,-9252.214,-6646.917,0
14950.408,-17038.668,-14857.183,-11712.157,-15826.756,-646.211,-17051.363,-9251.990,-6649.711,0
14950.408,-17038.512,-14858.702,-11710.593,-15826.130,-647.217,-17048.838,-9252.058,-6646.425,0
14950.408,-17031.984,-14851.371,-11703.753,-15816.027,-645.787,-17037.395,-9249.397,-6639.519,0
14950.408,-17028.096,-14844.777,-11700.624,-15811.110,-642.657,-17031.270,-9242.424,-6633.663,0
14950.408,-17034.086,-14848.555,-11708.604,-15821.146,-646.032,-17038.041,-9243.362,-6633.752,0
14950.408,-17039.137,-14854.970,-11713.588,-15830.422,-649.631,-17045.418,-9242.312,-6634.512,0
14950.467,-17037.035,-14856.735,-11710.057,-15827.918,-648.312,-17043.898,-9240.145,-6633.059,0
14950.467,-17031.939,-14851.817,-11704.223,-15818.218,-646.077,-17034.086,-9243.027,-6625.213,0
14950.467,-17029.102,-14846.297,-11703.843,-15814.574,-644.378,-17030.285,-9244.569,-6626.264,0
14950.467,-17029.213,-14844.397,-11707.889,-15820.140,-642.255,-17034.510,-9237.998,-6627.650,0
14950.467,-17033.371,-14850.432,-11713.477,-15830.332,-646.658,-17043.742,-9247.252,-6638.982,0
14950.468,-17031.561,-14851.103,-11709.989,-15828.410,-645.496,-17042.668,-9242.245,-6643.654,0
14950.468,-17026.822,-14840.888,-11704.044,-15819.827,-643.842,-17033.639,-9238.378,-6634.154,0
14950.468,-17022.238,-14834.786,-11700.579,-15814.619,-641.696,-17026.955,-9237.976,-6623.336,0
14950.468,-17025.168,-14836.999,-11706.101,-15821.839,-642.680,-17033.014,-9235.986,-6627.181,0
14950.468,-17028.766,-14840.598,-11712.001,-15830.422,-644.602,-17038.779,-9236.813,-6626.420,0
14950.468,-17028.051,-14843.279,-11710.347,-15829.326,-645.273,-17038.758,-9229.169,-6622.531,0
14950.469,-17022.574,-14837.580,-11702.122,-15818.084,-643.328,-17031.203,-9227.851,-6622.509,0
14950.469,-17020.160,-14834.696,-11700.177,-15813.993,-642.680,-17027.180,-9237.439,-6622.598,0
14950.469,-17024.027,-14840.709,-11705.050,-15821.928,-643.082,-17033.527,-9233.886,-6624.521,0
14950.469,-17030.732,-14847.348,-11710.057,-15829.707,-643.775,-17041.887,-9225.303,-6625.817,0
14950.527,-17030.152,-14846.051,-11707.017,-15826.310,-641.830,-17039.830,-9224.118,-6617.033,0
14950.527,-17024.250,-14838.787,-11700.938,-15816.184,-644.691,-17036.902,-9231.650,-6625.616,0
14950.527,-17023.848,-14837.982,-11700.803,-15813.367,-645.764,-17037.193,-9237.037,-6632.679,0
14950.527,-17030.711,-14846.968,-11707.553,-15821.481,-646.792,-17043.271,-9239.451,-6634.802,0
14950.528,-17035.426,-14855.416,-11711.755,-15827.739,-647.105,-17048.213,-9239.607,-6635.339,0
14950.528,-17034.623,-14854.276,-11709.252,-15825.505,-648.581,-17048.033,-9241.373,-6635.719,0
14950.528,-17027.805,-14846.945,-11702.568,-15815.044,-648.268,-17041.127,-9244.905,-6637.104,0
14950.528,-17027.246,-14844.554,-11703.172,-15811.624,-646.658,-17038.645,-9245.486,-6638.602,0
14950.528,-17030.777,-14845.626,-11706.413,-15818.754,-646.122,-17042.713,-9242.670,-6638.513,0
14950.528,-17030.889,-14845.067,-11706.368,-15827.002,-646.167,-17047.006,-9233.841,-6633.931,0
14950.529,-17030.555,-14848.957,-11703.642,-15826.220,-646.904,-17046.021,-9236.188,-6626.711,0
14950.529,-17030.174,-14853.605,-11696.288,-15815.558,-644.714,-17037.930,-9234.779,-6629.438,0
14950.529,-17027.715,-14848.756,-11693.673,-15811.870,-642.367,-17033.102,-9230.153,-6625.750,0
14950.529,-17031.783,-14852.242,-11697.651,-15820.140,-642.970,-17040.143,-9235.584,-6631.271,0
14950.529,-17038.846,-14860.646,-11701.965,-15828.924,-642.635,-17045.820,-9233.662,-6633.148,0
14950.587,-17038.400,-14859.909,-11700.513,-15827.337,-641.584,-17042.914,-9231.338,-6628.097,0
14950.587,-17036.029,-14860.155,-11693.248,-15816.563,-641.160,-17035.068,-9234.467,-6629.840,0
14950.588,-17037.438,-14861.809,-11692.957,-15814.753,-640.534,-17031.963,-9228.454,-6626.711,0
14950.588,-17041.953,-14865.653,-11698.501,-15822.711,-642.210,-17039.539,-9230.063,-6632.522,0
14950.588,-17047.943,-14870.816,-11704.290,-15830.713,-643.775,-17046.736,-9233.305,-6635.942,0
14950.588,-17049.330,-14873.924,-11702.278,-15829.192,-642.970,-17044.592,-9227.604,-6635.138,0
14950.588,-17041.395,-14866.436,-11693.114,-15817.458,-640.623,-17036.723,-9231.784,-6633.886,0
14950.588,-17040.613,-14874.214,-11693.874,-15816.340,-640.467,-17035.449,-9237.774,-6630.131,0
14950.589,-17047.027,-14887.961,-11700.199,-15825.393,-641.987,-17043.674,-9235.741,-6638.602,0
14950.589,-17051.408,-14887.424,-11704.536,-15833.797,-643.753,-17052.102,-9235.093,-6643.363,0
14950.589,-17050.111,-14876.896,-11702.613,-15831.093,-642.903,-17050.670,-9230.958,-6641.955,0
14950.589,-17046.088,-14868.022,-11696.958,-15820.341,-640.981,-17041.059,-9232.724,-6626.644,0
14950.589,-17046.938,-14867.956,-11696.087,-15817.726,-640.020,-17037.885,-9222.441,-6625.750,0
14950.589,-17051.877,-14874.996,-11700.714,-15825.571,-641.741,-17043.674,-9221.815,-6624.029,0
14950.590,-17053.354,-14879.914,-11703.888,-15832.099,-642.523,-17049.889,-9228.834,-6620.944,0
14950.646,-17052.816,-14883.513,-11703.373,-15832.099,-645.876,-17053.309,-9232.991,-6627.158,0
14950.647,-17042.938,-14872.001,-11694.231,-15817.682,-643.797,-17044.412,-9233.908,-6630.846,0
14950.647,-17039.406,-14865.788,-11690.745,-15812.429,-642.635,-17040.232,-9231.203,-6632.389,0
14950.647,-17045.641,-14872.493,-11698.255,-15821.950,-644.289,-17045.127,-9232.143,-6631.695,0
14950.647,-17050.424,-14875.354,-11704.737,-15830.556,-643.820,-17048.994,-9234.399,-6629.997,0
14950.647,-17052.637,-14878.752,-11704.089,-15831.294,-644.915,-17047.877,-9232.478,-6631.226,0
14950.647,-17046.646,-14872.604,-11696.892,-15821.168,-644.781,-17038.467,-9233.752,-6625.526,0
14950.648,-17042.668,-14868.246,-11693.539,-15816.877,-645.094,-17035.918,-9234.980,-6630.176,0
14950.648,-17047.162,-14871.062,-11700.043,-15824.477,-646.301,-17042.244,-9237.351,-6632.478,0
14950.648,-17050.000,-14873.275,-11704.804,-15830.914,-648.335,-17047.430,-9236.836,-6632.947,0
14950.648,-17047.006,-14872.940,-11703.038,-15828.634,-649.251,-17045.529,-9237.417,-6630.734,0
14950.648,-17038.980,-14865.788,-11695.908,-15816.184,-648.134,-17034.756,-9234.557,-6625.035,0
14950.649,-17034.578,-14857.897,-11692.019,-15810.931,-647.172,-17032.230,-9232.030,-6624.387,0
14950.649,-17038.266,-14860.356,-11696.690,-15819.090,-647.016,-17038.578,-9227.561,-6624.186,0
14950.649,-17040.344,-14862.613,-11700.423,-15825.772,-646.435,-17044.031,-9227.582,-6625.080,0
14950.706,-17038.221,-14858.836,-11700.579,-15824.565,-645.608,-17045.016,-9235.070,-6626.197,0
14950.707,-17035.584,-14856.646,-11694.746,-15815.580,-644.200,-17039.629,-9228.968,-6624.409,0
14950.707,-17035.584,-14859.932,-11693.359,-15812.138,-642.054,-17038.443,-9228.298,-6628.611,0
14950.707,-17042.133,-14870.861,-11699.953,-15821.168,-641.920,-17043.898,-9225.213,-6626.711,0
14950.707,-17044.748,-14874.996,-11705.095,-15829.550,-643.507,-17050.961,-9235.518,-6630.176,0
14950.707,-17041.908,-14871.822,-11705.050,-15828.187,-641.987,-17049.150,-9239.295,-6630.689,0
14950.708,-17035.471,-14860.133,-11699.618,-15816.541,-640.176,-17039.338,-9239.675,-6631.896,0
14950.708,-17034.488,-14857.204,-11698.322,-15813.188,-640.243,-17036.768,-9241.239,-6634.445,0
14950.708,-17039.182,-14861.697,-11703.775,-15821.235,-641.428,-17043.920,-9241.128,-6644.146,0
14950.708,-17044.479,-14868.224,-11709.498,-15829.796,-642.076,-17047.766,-9244.078,-6638.222,0
14950.708,-17044.301,-14871.778,-11705.586,-15829.059,-641.875,-17045.082,-9233.148,-6631.249,0
14950.708,-17037.193,-14864.536,-11697.204,-15818.620,-642.188,-17037.707,-9234.422,-6633.931,0
14950.709,-17033.906,-14862.748,-11696.512,-15814.552,-643.753,-17036.812,-9237.797,-6641.910,0
14950.709,-17035.986,-14863.508,-11701.474,-15820.319,-643.641,-17040.770,-9240.346,-6637.060,0
14950.709,-17038.936,-14863.329,-11707.218,-15828.521,-645.652,-17047.652,-9245.575,-6636.054,0
14950.766,-17036.410,-14857.249,-11707.330,-15828.053,-647.642,-17048.078,-9249.353,-6639.519,0
14950.766,-17026.129,-14848.130,-11699.104,-15815.469,-645.764,-17039.271,-9252.594,-6637.619,0
14950.766,-17023.781,-14848.756,-11697.719,-15811.490,-644.468,-17036.879,-9248.570,-6636.144,0
14950.767,-17028.654,-14856.646,-11702.927,-15819.470,-645.988,-17043.607,-9253.019,-6636.993,0
14950.767,-17033.459,-14860.759,-11705.608,-15827.047,-645.317,-17048.213,-9251.320,-6638.669,0
14950.767,-17034.152,-14857.115,-11703.262,-15827.404,-644.937,-17047.652,-9239.474,-6639.072,0
14950.767,-17029.033,-14849.963,-11694.947,-15817.189,-643.015,-17037.930,-9232.187,-6633.037,0
14950.767,-17025.748,-14845.224,-11692.019,-15813.792,-641.920,-17033.617,-9232.634,-6630.846,0
14950.767,-17028.453,-14848.442,-11695.461,-15822.264,-641.987,-17037.215,-9232.545,-6628.700,0
14950.767,-17037.863,-14859.775,-11700.981,-15830.444,-642.255,-17042.691,-9231.807,-6622.911,0
14950.767,-17040.680,-14862.837,-11701.228,-15829.461,-641.920,-17040.613,-9228.968,-6621.079,0
14950.767,-17033.572,-14849.851,-11694.522,-15817.726,-641.473,-17031.918,-9230.801,-6621.414,0
14950.767,-17032.789,-14847.012,-11693.114,-15813.479,-639.595,-17027.537,-9227.068,-6616.809,0
14950.767,-17038.824,-14856.154,-11696.914,-15820.609,-639.081,-17033.371,-9215.691,-6615.580,0
14950.767,-17044.189,-14865.229,-11701.987,-15829.527,-640.310,-17040.254,-9214.708,-6614.619,0
14950.827,-17047.250,-14870.526,-11703.508,-15831.204,-641.674,-17041.484,-9216.898,-6617.211,0
14950.827,-17042.848,-14866.883,-11697.920,-15820.140,-638.299,-17032.029,-9216.607,-6613.680,0
14950.827,-17038.221,-14858.657,-11694.679,-15813.993,-636.779,-17027.627,-9217.971,-6614.261,0
14950.827,-17041.461,-14861.831,-11700.602,-15821.884,-639.170,-17034.824,-9223.581,-6617.435,0
14950.828,-17045.037,-14869.073,-11703.194,-15828.478,-641.204,-17042.178,-9228.186,-6617.793,0
14950.828,-17044.010,-14871.532,-11703.016,-15826.778,-642.657,-17042.959,-9230.801,-6620.162,0
14950.828,-17038.176,-14865.564,-11697.920,-15816.810,-641.987,-17035.359,-9233.416,-6616.206,0
14950.828,-17037.125,-14863.664,-11696.601,-15813.792,-640.243,-17033.080,-9220.162,-6620.676,0
14950.828,-17042.691,-14872.649,-11700.803,-15822.777,-640.132,-17042.266,-9208.919,-6630.198,0
14950.828,-17048.324,-14878.796,-11705.743,-15830.779,-640.243,-17047.049,-9220.475,-6629.282,0
14950.828,-17049.576,-14878.081,-11707.955,-15830.176,-641.473,-17045.775,-9232.410,-6623.180,0
14950.829,-17040.188,-14862.814,-11699.060,-15816.899,-637.561,-17035.137,-9230.131,-6623.626,0
14950.829,-17035.113,-14856.020,-11696.646,-15812.317,-636.019,-17029.928,-9239.026,-6628.276,0
14950.829,-17044.346,-14866.458,-11703.865,-15823.717,-638.075,-17036.746,-9226.219,-6632.143,0
14950.829,-17049.979,-14875.197,-11707.150,-15832.120,-637.964,-17044.391,-9219.692,-6625.772,0
14950.887,-17049.664,-14874.996,-11706.391,-15831.740,-639.506,-17046.268,-9220.743,-6622.755,0
14950.887,-17043.586,-14868.067,-11700.513,-15820.721,-638.969,-17038.980,-9221.011,-6625.974,0
14950.888,-17040.992,-14865.341,-11699.127,-15816.787,-639.439,-17036.053,-9228.343,-6625.191,0
14950.888,-17043.562,-14867.956,-11703.061,-15822.822,-639.014,-17039.607,-9225.816,-6618.731,0
14950.888,-17049.039,-14876.584,-11709.900,-15831.473,-640.422,-17047.162,-9222.934,-6624.431,0
14950.888,-17048.771,-14875.600,-11711.130,-15831.383,-641.294,-17048.457,-9224.141,-6627.158,0
14950.888,-17043.496,-14871.196,-11702.681,-15819.671,-639.617,-17040.121,-9222.889,-6626.331,0
14950.888,-17042.691,-14871.532,-11700.267,-15815.849,-639.282,-17037.059,-9225.593,-6629.214,0
14950.889,-17048.480,-14878.685,-11707.911,-15824.298,-640.981,-17044.211,-9228.409,-6630.354,0
14950.889,-17053.822,-14884.831,-11713.230,-15832.389,-641.741,-17048.033,-9228.767,-6622.218,0
14950.889,-17052.682,-14881.612,-11711.867,-15830.824,-641.920,-17045.686,-9228.119,-6617.860,0
14950.889,-17047.049,-14874.371,-11703.329,-15819.760,-642.054,-17037.797,-9224.923,-6617.927,0
14950.889,-17046.514,-14874.304,-11701.831,-15817.436,-642.836,-17035.494,-9225.660,-6619.179,0
14950.890,-17049.777,-14877.857,-11707.106,-15824.432,-644.110,-17040.121,-9231.673,-6620.631,0
14950.890,-17052.727,-14878.796,-11710.771,-15831.271,-644.937,-17045.932,-9230.310,-6620.564,0
14950.947,-17051.408,-14875.801,-11711.442,-15831.808,-646.278,-17045.775,-9228.924,-6621.302,0
14950.947,-17043.943,-14868.626,-11704.670,-15820.207,-644.669,-17037.395,-9226.420,-6620.497,0
14950.948,-17040.791,-14864.871,-11699.238,-15814.932,-643.373,-17034.756,-9225.280,-6621.123,0
14950.948,-17045.686,-14870.235,-11705.430,-15824.052,-645.675,-17041.574,-9231.069,-6623.180,0
14950.948,-17050.381,-14875.398,-11709.989,-15831.830,-645.273,-17047.318,-9230.868,-6623.515,0
14950.948,-17051.006,-14877.366,-11710.728,-15831.629,-645.496,-17048.078,-9230.801,-6623.470,0
14950.948,-17044.301,-14872.516,-11703.530,-15820.811,-644.311,-17041.395,-9235.450,-6625.146,0
14950.948,-17042.334,-14872.181,-11701.116,-15816.452,-640.512,-17036.590,-9236.411,-6622.799,0
14950.949,-17047.988,-14878.908,-11706.637,-15824.722,-639.394,-17041.172,-9229.571,-6627.694,0
14950.949,-17051.006,-14878.818,-11709.609,-15832.300,-637.785,-17044.568,-9223.761,-6627.001,0
14950.949,-17050.826,-14874.214,-11709.699,-15832.590,-638.075,-17044.277,-9222.776,-6622.867,0
14950.949,-17041.686,-14865.676,-11700.312,-15820.051,-635.974,-17037.527,-9228.275,-6624.878,0
14950.949,-17038.377,-14866.123,-11699.484,-15816.698,-636.153,-17034.957,-9233.752,-6619.111,0
14950.949,-17043.652,-14873.074,-11706.078,-15824.163,-637.606,-17042.893,-9224.431,-6623.403,0
14950.950,-17047.318,-14873.253,-11710.168,-15830.489,-639.416,-17050.582,-9228.968,-6627.806,0
14950.950,-17045.396,-14871.219,-11708.313,-15829.326,-640.199,-17050.895,-9234.042,-6635.897,0
14951.007,-17037.662,-14865.162,-11698.702,-15817.994,-636.511,-17039.025,-9229.304,-6625.325,0
14951.008,-17037.416,-14863.239,-11698.456,-15815.245,-636.511,-17036.432,-9232.880,-6625.258,0
14951.008,-17042.400,-14867.084,-11704.558,-15822.465,-638.276,-17043.115,-9240.256,-6636.501,0
14951.008,-17049.531,-14874.393,-11709.722,-15832.769,-639.953,-17050.738,-9231.494,-6637.552,0
14951.008,-17050.135,-14874.616,-11707.396,-15832.300,-638.142,-17046.781,-9222.330,-6620.564,0
14951.008,-17043.629,-14871.867,-11699.842,-15820.677,-635.930,-17037.059,-9223.939,-6612.205,0
14951.009,-17039.227,-14868.180,-11697.651,-15815.670,-637.651,-17036.320,-9231.852,-6622.979,0
14951.009,-17041.506,-14868.648,-11701.183,-15821.638,-638.411,-17041.506,-9232.008,-6624.833,0
14951.009,-17048.369,-14874.371,-11708.246,-15832.434,-641.719,-17050.268,-9236.366,-6627.091,0
14951.009,-17050.156,-14875.443,-11708.559,-15831.875,-641.875,-17050.381,-9232.545,-6628.566,0
14951.009,-17043.674,-14869.811,-11702.726,-15821.324,-640.780,-17042.178,-9234.132,-6628.678,0
14951.009,-17039.719,-14864.715,-11702.948,-15817.323,-640.668,-17039.316,-9240.032,-6629.997,0
14951.010,-17043.406,-14868.827,-11708.000,-15823.984,-640.489,-17044.568,-9233.818,-6629.729,0
14951.010,-17048.727,-14876.896,-11710.437,-15831.428,-639.595,-17049.375,-9232.857,-6629.326,0
14951.010,-17049.195,-14880.696,-11709.564,-15830.668,-638.075,-17048.168,-9236.165,-6628.745,0
14951.068,-17043.250,-14872.359,-11703.753,-15820.297,-636.287,-17040.254,-9238.602,-6630.846,0
14951.068,-17040.010,-14865.967,-11702.166,-15815.916,-634.924,-17035.941,-9240.792,-6632.232,0
14951.068,-17047.943,-14875.689,-11708.648,-15823.851,-634.901,-17040.500,-9232.276,-6626.823,0
14951.068,-17055.096,-14880.965,-11713.477,-15831.897,-635.438,-17047.496,-9227.046,-6627.874,0
14951.068,-17054.291,-14878.014,-11710.839,-15831.450,-635.594,-17048.055,-9220.229,-6627.113,0
14951.069,-17046.133,-14867.777,-11703.172,-15820.006,-634.544,-17040.166,-9226.174,-6624.208,0
14951.069,-17040.545,-14863.173,-11699.148,-15814.440,-632.823,-17034.086,-9230.511,-6619.067,0
14951.069,-17044.277,-14867.308,-11703.172,-15821.683,-634.365,-17039.047,-9230.913,-6623.515,0
14951.069,-17049.619,-14874.572,-11707.754,-15831.003,-637.427,-17047.877,-9226.062,-6631.405,0
14951.069,-17044.703,-14870.705,-11705.520,-15828.388,-636.846,-17045.016,-9226.935,-6625.526,0
14951.069,-17037.080,-14862.100,-11699.015,-15818.308,-637.740,-17038.824,-9230.354,-6625.459,0
14951.070,-17035.137,-14859.977,-11696.489,-15814.574,-636.064,-17034.801,-9220.944,-6621.347,0
14951.070,-17038.557,-14864.156,-11700.334,-15821.190,-635.192,-17039.316,-9228.119,-6622.777,0
14951.070,-17042.602,-14867.956,-11703.239,-15828.656,-635.661,-17045.082,-9235.584,-6623.403,0
14951.070,-17042.557,-14867.509,-11702.591,-15828.589,-636.287,-17046.066,-9229.751,-6622.844,0
14951.128,-17035.762,-14858.836,-11695.595,-15817.101,-634.052,-17036.834,-9217.993,-6621.458,0
14951.128,-17032.855,-14857.361,-11693.181,-15813.546,-634.208,-17035.002,-9221.436,-6623.403,0
14951.128,-17034.891,-14860.646,-11695.104,-15819.760,-633.538,-17040.053,-9222.688,-6624.409,0
14951.128,-17038.891,-14867.039,-11699.507,-15828.589,-634.365,-17045.529,-9225.973,-6623.939,0
14951.128,-17036.812,-14865.899,-11696.937,-15825.058,-632.688,-17044.346,-9223.604,-6625.772,0
14951.128,-17033.371,-14860.602,-11691.349,-15814.194,-631.414,-17037.818,-9223.560,-6627.493,0
14951.129,-17034.510,-14859.529,-11691.058,-15813.301,-632.487,-17035.852,-9226.264,-6626.420,0
14951.129,-17036.924,-14861.966,-11693.047,-15820.431,-632.577,-17038.377,-9223.671,-6621.414,0
14951.129,-17039.695,-14866.793,-11696.623,-15828.701,-632.756,-17044.479,-9221.413,-6620.050,0
14951.129,-17039.852,-14866.011,-11697.316,-15829.707,-635.169,-17044.592,-9221.592,-6621.771,0
14951.129,-17036.320,-14858.591,-11692.936,-15818.240,-632.912,-17034.354,-9221.123,-6620.229,0
14951.129,-17035.359,-14855.595,-11693.472,-15812.160,-630.342,-17030.152,-9224.364,-6620.698,0
14951.129,-17038.266,-14858.813,-11700.400,-15818.665,-631.258,-17036.545,-9230.488,-6623.850,0
14951.130,-17039.428,-14860.445,-11706.838,-15826.577,-633.851,-17041.551,-9239.987,-6624.431,0
14951.130,-17039.227,-14861.004,-11707.308,-15825.974,-635.080,-17041.596,-9238.244,-6626.107,0
14951.188,-17034.264,-14853.338,-11700.535,-15814.954,-633.024,-17032.855,-9231.650,-6625.370,0
14951.188,-17031.404,-14848.264,-11698.947,-15810.864,-633.426,-17030.219,-9239.474,-6627.359,0
14951.189,-17035.918,-14852.757,-11705.005,-15819.134,-635.527,-17037.281,-9240.681,-6629.662,0
14951.189,-17040.701,-14858.390,-11711.286,-15828.075,-636.913,-17043.049,-9231.517,-6628.901,0
14951.189,-17040.568,-14858.792,-11709.408,-15827.695,-636.399,-17041.373,-9228.186,-6628.276,0
14951.189,-17035.137,-14850.723,-11702.077,-15817.257,-634.432,-17033.438,-9227.806,-6621.838,0
14951.189,-17029.191,-14842.095,-11699.507,-15812.339,-635.594,-17031.984,-9236.970,-6624.252,0
14951.190,-17029.078,-14842.564,-11703.083,-15819.134,-636.064,-17041.127,-9229.058,-6639.161,0
14951.190,-17032.275,-14846.632,-11707.978,-15827.181,-635.728,-17050.492,-9231.919,-6649.667,0
14951.190,-17034.824,-14846.677,-11710.012,-15828.433,-634.253,-17047.988,-9229.460,-6626.107,0
14951.190,-17029.348,-14841.312,-11702.568,-15817.637,-632.286,-17036.275,-9230.533,-6611.512,0
14951.190,-17027.738,-14839.189,-11702.726,-15815.446,-634.208,-17034.422,-9238.043,-6620.721,0
14951.190,-17032.789,-14842.989,-11709.006,-15822.621,-635.862,-17040.770,-9239.071,-6630.176,0
14951.191,-17035.918,-14846.811,-11713.543,-15829.550,-636.913,-17047.385,-9242.647,-6634.020,0
14951.191,-17035.471,-14848.062,-11713.812,-15828.723,-638.858,-17048.213,-9241.910,-6632.411,0
14951.249,-17028.475,-14840.978,-11704.580,-15816.430,-638.612,-17039.852,-9242.401,-6630.667,0
14951.249,-17025.234,-14837.065,-11700.513,-15811.043,-637.606,-17035.605,-9241.463,-6630.354,0
14951.249,-17029.480,-14840.799,-11706.145,-15820.319,-641.406,-17044.412,-9243.318,-6636.926,0
14951.249,-17031.850,-14842.631,-11710.369,-15828.299,-642.993,-17051.229,-9245.106,-6641.978,0
14951.249,-17032.119,-14842.117,-11709.207,-15828.745,-642.009,-17048.637,-9242.245,-6635.607,0
14951.250,-17029.057,-14837.468,-11703.731,-15819.380,-638.634,-17040.232,-9235.875,-6631.204,0
14951.250,-17026.195,-14835.232,-11701.541,-15814.954,-637.673,-17037.639,-9240.367,-6633.976,0
14951.250,-17029.393,-14839.457,-11707.486,-15822.174,-639.238,-17043.697,-9247.989,-6635.026,0
14951.250,-17034.443,-14846.722,-11712.851,-15829.863,-639.372,-17048.859,-9243.407,-6632.970,0
14951.250,-17036.812,-14850.052,-11710.638,-15828.701,-638.612,-17048.703,-9232.611,-6633.685,0
14951.251,-17032.633,-14841.983,-11704.446,-15818.754,-637.673,-17040.836,-9232.812,-6635.361,0
14951.251,-17031.113,-14839.547,-11703.888,-15815.491,-639.662,-17039.004,-9242.737,-6639.585,0
14951.251,-17034.020,-14841.402,-11708.224,-15821.660,-640.802,-17044.055,-9243.161,-6639.004,0
14951.251,-17038.734,-14846.722,-11714.348,-15830.332,-643.037,-17050.156,-9245.062,-6635.875,0
14951.251,-17037.326,-14846.811,-11713.678,-15829.416,-643.417,-17050.492,-9243.877,-6634.378,0
14951.309,-17028.096,-14837.043,-11705.005,-15816.854,-640.825,-17042.379,-9246.380,-6635.406,0
14951.309,-17026.709,-14833.557,-11703.843,-15813.435,-639.260,-17039.584,-9245.776,-6637.440,0
14951.309,-17033.639,-14841.402,-11709.855,-15821.928,-638.120,-17044.367,-9246.179,-6638.647,0
14951.309,-17039.896,-14850.834,-11716.338,-15831.159,-638.746,-17051.297,-9244.928,-6647.543,0
14951.309,-17039.539,-14851.527,-11716.293,-15830.690,-639.640,-17051.789,-9254.650,-6651.343,0
14951.309,-17034.533,-14845.827,-11709.185,-15820.632,-638.478,-17044.635,-9260.663,-6651.566,0
14951.309,-17033.236,-14842.832,-11705.497,-15815.535,-634.544,-17038.980,-9245.374,-6645.598,0
14951.310,-17038.668,-14847.549,-11710.950,-15823.627,-634.991,-17044.703,-9236.009,-6644.749,0
14951.310,-17043.094,-14852.645,-11713.565,-15830.467,-633.203,-17047.318,-9231.762,-6630.980,0
14951.310,-17043.184,-14853.562,-11713.007,-15830.779,-635.728,-17047.922,-9240.748,-6629.416,0
14951.310,-17036.969,-14846.252,-11705.877,-15820.274,-634.477,-17038.266,-9236.165,-6625.504,0
14951.310,-17033.035,-14838.988,-11703.239,-15815.178,-632.487,-17032.588,-9236.567,-6623.247,0
14951.310,-17036.611,-14843.257,-11709.162,-15822.510,-634.320,-17039.764,-9241.352,-6632.522,0
14951.310,-17043.562,-14851.415,-11715.421,-15832.635,-636.377,-17047.721,-9239.004,-6637.060,0
14951.310,-17042.244,-14851.438,-11714.236,-15832.791,-636.935,-17046.604,-9239.340,-6635.696,0
14951.368,-17037.662,-14845.648,-11709.677,-15822.867,-634.432,-17037.797,-9236.567,-6632.522,0
14951.368,-17036.410,-14844.732,-11709.141,-15818.352,-633.717,-17033.459,-9240.188,-6635.093,0
14951.368,-17037.260,-14847.079,-11712.358,-15824.387,-633.605,-17038.332,-9243.273,-6637.038,0
14951.368,-17041.260,-14851.192,-11720.518,-15833.909,-636.265,-17045.619,-9251.968,-6638.423,0
14951.368,-17041.238,-14850.365,-11721.389,-15834.355,-637.047,-17045.799,-9253.801,-6637.038,0
14951.368,-17033.459,-14840.754,-11712.538,-15822.174,-632.912,-17035.561,-9239.205,-6630.533,0
14951.368,-17031.359,-14838.675,-11710.459,-15817.793,-629.559,-17029.168,-9234.668,-6626.532,0
14951.368,-17036.074,-14843.302,-11714.460,-15824.678,-629.135,-17033.996,-9233.640,-6624.431,0
14951.369,-17042.668,-14850.745,-11720.606,-15833.729,-632.577,-17042.848,-9245.151,-6626.354,0
14951.369,-17042.824,-14852.823,-11718.729,-15833.193,-632.353,-17043.070,-9236.165,-6624.990,0
14951.369,-17033.326,-14842.989,-11708.135,-15820.855,-628.240,-17032.611,-9228.812,-6622.799,0
14951.369,-17031.180,-14840.709,-11706.704,-15817.011,-627.615,-17029.102,-9239.116,-6623.090,0
14951.369,-17036.746,-14847.393,-11711.241,-15824.789,-627.056,-17034.801,-9231.472,-6621.056,0
14951.369,-17043.428,-14852.310,-11718.327,-15834.400,-628.933,-17042.914,-9230.913,-6625.124,0
14951.369,-17045.238,-14853.226,-11719.221,-15833.953,-630.230,-17043.004,-9227.448,-6625.794,0
14951.428,-17039.941,-14849.471,-11712.091,-15821.771,-629.626,-17036.500,-9226.890,-6627.851,0
14951.428,-17037.572,-14847.393,-11709.989,-15816.452,-628.933,-17033.975,-9234.802,-6632.679,0
14951.429,-17041.059,-14852.108,-11715.041,-15824.834,-629.604,-17038.377,-9238.043,-6627.270,0
14951.429,-17044.367,-14855.350,-11719.623,-15832.522,-630.923,-17044.031,-9239.541,-6627.874,0
14951.429,-17046.715,-14856.601,-11719.109,-15833.395,-632.376,-17047.295,-9236.456,-6630.354,0
14951.429,-17038.086,-14846.767,-11709.677,-15820.096,-629.671,-17037.527,-9234.355,-6621.392,0
14951.429,-17035.672,-14842.341,-11708.357,-15815.469,-629.447,-17033.818,-9237.439,-6625.504,0
14951.430,-17042.355,-14849.292,-11716.919,-15824.990,-631.280,-17039.719,-9243.475,-6630.131,0
14951.430,-17049.820,-14858.635,-11723.021,-15835.026,-632.443,-17047.162,-9241.083,-6634.177,0
14951.430,-17050.447,-14861.630,-11723.758,-15833.641,-632.241,-17046.982,-9242.938,-6631.137,0
14951.430,-17048.658,-14860.088,-11719.109,-15823.918,-631.459,-17040.143,-9240.658,-6626.443,0
14951.430,-17045.754,-14857.808,-11716.807,-15819.112,-631.034,-17037.707,-9242.670,-6634.355,0
14951.430,-17049.217,-14857.942,-11722.148,-15825.907,-629.917,-17042.982,-9242.625,-6632.902,0
14951.431,-17054.582,-14863.776,-11726.865,-15833.462,-629.895,-17047.385,-9243.810,-6627.561,0
14951.431,-17052.883,-14862.949,-11725.457,-15831.383,-630.140,-17046.379,-9245.285,-6631.002,0
14951.488,-17045.686,-14854.545,-11719.847,-15820.498,-629.671,-17039.449,-9246.045,-6631.271,0
