timestamps,Fz,F3,C4,Cz,Pz,P3,O2,O1,Marker
14399.943,-15093.061,-13589.570,-9155.319,-13002.814,-892.192,-15495.794,-7528.760,-5235.002,0
14399.943,-15096.949,-13592.632,-9157.040,-13008.470,-891.142,-15499.840,-7526.771,-5231.493,0
14399.943,-15100.324,-13597.997,-9157.845,-13010.123,-892.259,-15502.343,-7527.040,-5237.930,0
14399.944,-15101.867,-13597.438,-9155.722,-13005.340,-893.310,-15499.280,-7528.604,-5238.601,0
14399.944,-15103.565,-13597.840,-9155.408,-13002.725,-894.539,-15498.633,-7534.036,-5241.037,0
14399.944,-15106.493,-13601.126,-9157.867,-13007.039,-893.623,-15502.879,-7536.137,-5243.742,0
14399.944,-15109.243,-13604.591,-9160.371,-13013.968,-892.885,-15508.914,-7532.091,-5246.826,0
14399.944,-15109.086,-13605.775,-9159.834,-13013.633,-893.019,-15510.345,-7529.766,-5248.458,0
14399.944,-15106.807,-13602.243,-9156.191,-13006.167,-892.930,-15505.785,-7533.186,-5243.451,0
14399.945,-15103.655,-13598.601,-9154.313,-13001.652,-891.320,-15503.326,-7535.891,-5246.044,0
14399.945,-15103.610,-13600.701,-9156.146,-13005.899,-891.522,-15506.232,-7532.426,-5244.926,0
14399.945,-15102.225,-13603.830,-9154.582,-13009.274,-890.918,-15508.222,-7521.943,-5236.812,0
14399.945,-15099.140,-13605.373,-9152.525,-13008.715,-893.153,-15507.663,-7519.395,-5235.449,0
14399.945,-15093.574,-13599.517,-9149.508,-13002.457,-896.730,-15505.517,-7523.575,-5239.227,0
14399.946,-15090.222,-13591.604,-9148.613,-12998.456,-896.752,-15505.204,-7527.710,-5239.137,0
14400.003,-15088.545,-13590.688,-9150.156,-13001.272,-895.880,-15508.087,-7527.978,-5241.171,0
14400.004,-15090.244,-13593.705,-9153.710,-13006.614,-897.423,-15511.865,-7526.950,-5243.451,0
14400.004,-15090.825,-13593.459,-9153.240,-13006.726,-898.875,-15512.603,-7523.865,-5245.955,0
14400.004,-15090.267,-13592.476,-9151.766,-13000.646,-899.457,-15509.361,-7527.665,-5246.491,0
14400.005,-15087.740,-13588.854,-9149.485,-12994.098,-897.914,-15506.276,-7527.040,-5247.273,0
14400.005,-15087.830,-13589.727,-9152.860,-12997.338,-898.004,-15508.646,-7528.067,-5244.859,0
14400.005,-15086.578,-13589.883,-9156.213,-13001.652,-898.250,-15512.021,-7530.258,-5245.262,0
14400.006,-15085.907,-13593.013,-9157.152,-13002.322,-900.395,-15512.603,-7531.331,-5244.457,0
14400.006,-15083.271,-13591.537,-9154.626,-12996.243,-900.976,-15509.026,-7533.566,-5248.056,0
14400.006,-15082.555,-13589.101,-9154.648,-12993.449,-901.647,-15507.439,-7540.115,-5248.391,0
14400.006,-15083.449,-13591.045,-9156.772,-12997.875,-900.999,-15510.814,-7540.562,-5250.805,0
14400.007,-15082.846,-13591.090,-9156.459,-13002.882,-898.875,-15514.056,-7534.147,-5251.073,0
14400.007,-15084.388,-13593.191,-9156.638,-13005.161,-899.412,-15513.496,-7532.068,-5242.378,0
14400.007,-15083.427,-13589.168,-9153.084,-12998.143,-900.060,-15509.897,-7534.818,-5241.819,0
14400.008,-15086.556,-13590.665,-9153.419,-12996.623,-900.596,-15508.780,-7537.143,-5245.731,0
14400.064,-15089.596,-13591.783,-9155.364,-13001.630,-897.624,-15510.412,-7534.103,-5242.244,0
14400.064,-15089.126,-13588.788,-9156.683,-13006.860,-896.506,-15512.558,-7527.754,-5236.298,0
14400.064,-15087.584,-13589.659,-9154.939,-13007.173,-896.797,-15514.056,-7522.658,-5237.841,0
14400.064,-15090.579,-13596.119,-9151.676,-13000.065,-895.344,-15511.104,-7526.324,-5239.853,0
14400.064,-15095.854,-13601.059,-9153.419,-12997.808,-894.740,-15509.495,-7531.845,-5241.931,0
14400.064,-15097.978,-13602.646,-9155.699,-13002.479,-893.757,-15510.523,-7532.829,-5240.702,0
14400.064,-15097.083,-13601.908,-9156.102,-13006.659,-893.220,-15512.982,-7532.203,-5240.724,0
14400.064,-15094.379,-13598.265,-9153.576,-13005.296,-891.857,-15510.859,-7529.878,-5234.019,0
14400.064,-15094.200,-13598.891,-9150.603,-12999.082,-894.539,-15508.021,-7531.622,-5240.277,0
14400.064,-15094.670,-13598.332,-9148.726,-12995.081,-895.433,-15506.299,-7528.291,-5241.037,0
14400.064,-15096.637,-13600.634,-9149.553,-12999.797,-893.332,-15505.450,-7521.317,-5229.079,0
14400.065,-15098.179,-13606.043,-9149.865,-13005.720,-894.115,-15508.132,-7521.407,-5228.163,0
14400.065,-15099.140,-13609.642,-9149.754,-13006.793,-895.411,-15510.501,-7523.552,-5228.945,0
14400.065,-15095.676,-13607.385,-9145.238,-12999.462,-895.344,-15507.797,-7524.066,-5230.666,0
14400.065,-15095.608,-13608.435,-9144.210,-12996.288,-896.573,-15508.557,-7525.765,-5239.853,0
14400.124,-15096.011,-13607.250,-9146.468,-13000.289,-896.439,-15513.094,-7525.072,-5241.573,0
14400.124,-15095.206,-13606.244,-9148.726,-13005.407,-897.445,-15518.503,-7522.815,-5242.803,0
14400.124,-15094.424,-13609.284,-9148.278,-13005.430,-898.227,-15519.018,-7523.083,-5236.611,0
14400.124,-15094.379,-13607.451,-9145.641,-13000.602,-898.741,-15517.006,-7527.084,-5236.500,0
14400.124,-15093.373,-13605.909,-9143.741,-12996.712,-897.914,-15515.665,-7526.615,-5240.903,0
14400.125,-15092.322,-13603.518,-9144.635,-12998.858,-897.355,-15518.816,-7528.604,-5243.362,0
14400.125,-15092.546,-13603.540,-9146.781,-13004.290,-897.065,-15522.415,-7526.771,-5243.228,0
14400.125,-15091.585,-13604.881,-9147.898,-13006.748,-898.987,-15522.884,-7527.509,-5241.909,0
14400.125,-15088.858,-13600.366,-9146.267,-13000.289,-900.284,-15519.621,-7533.343,-5246.066,0
14400.125,-15087.896,-13599.159,-9144.702,-12996.153,-898.182,-15516.805,-7533.521,-5249.799,0
14400.126,-15089.729,-13603.138,-9148.100,-13001.228,-898.071,-15519.465,-7535.198,-5248.771,0
14400.126,-15088.858,-13606.646,-9150.111,-13006.234,-898.898,-15522.460,-7536.025,-5245.418,0
14400.126,-15087.785,-13608.502,-9149.955,-13006.279,-899.546,-15522.415,-7533.454,-5246.200,0
14400.126,-15083.918,-13602.869,-9145.708,-12998.210,-898.630,-15516.715,-7531.264,-5246.200,0
14400.126,-15080.432,-13599.785,-9144.076,-12994.433,-900.127,-15515.731,-7533.343,-5245.977,0
14400.184,-15078.241,-13596.253,-9145.819,-12997.651,-901.021,-15520.023,-7531.845,-5246.491,0
14400.184,-15076.386,-13594.867,-9147.272,-13001.384,-900.507,-15522.035,-7532.001,-5242.557,0
14400.185,-15073.815,-13591.537,-9146.938,-13001.094,-902.474,-15522.146,-7537.299,-5242.043,0
14400.185,-15068.786,-13585.435,-9141.640,-12994.745,-902.318,-15517.944,-7528.828,-5242.177,0
14400.185,-15066.774,-13584.295,-9138.913,-12992.197,-900.775,-15514.524,-7519.752,-5236.768,0
14400.185,-15068.741,-13588.721,-9141.395,-12996.779,-899.613,-15515.374,-7517.093,-5235.382,0
14400.185,-15072.094,-13592.945,-9143.070,-13002.613,-897.445,-15514.838,-7509.046,-5227.224,0
14400.186,-15072.206,-13590.599,-9142.892,-13002.100,-896.327,-15512.088,-7508.599,-5223.960,0
14400.186,-15074.150,-13591.022,-9142.668,-12997.271,-897.467,-15509.406,-7515.327,-5223.536,0
14400.186,-15076.386,-13592.744,-9144.523,-12995.059,-896.551,-15508.624,-7520.826,-5227.648,0
14400.186,-15079.873,-13597.058,-9149.105,-12999.887,-895.500,-15512.245,-7519.596,-5229.503,0
14400.187,-15082.175,-13599.114,-9151.251,-13004.603,-895.120,-15515.284,-7522.971,-5230.174,0
14400.187,-15081.438,-13598.041,-9150.134,-13003.597,-895.232,-15513.385,-7524.692,-5232.454,0
14400.187,-15080.588,-13593.415,-9147.876,-12998.255,-895.411,-15507.171,-7527.844,-5228.833,0
14400.188,-15080.141,-13592.855,-9146.624,-12994.835,-894.629,-15504.042,-7529.252,-5232.543,0
14400.244,-15081.035,-13594.912,-9148.904,-12998.970,-895.500,-15506.456,-7530.146,-5233.013,0
14400.244,-15080.163,-13596.230,-9147.720,-13003.396,-896.931,-15510.390,-7531.398,-5234.085,0
14400.245,-15082.175,-13599.785,-9147.429,-13004.268,-898.875,-15511.463,-7531.041,-5235.047,0
14400.245,-15081.974,-13596.499,-9146.021,-12998.836,-900.306,-15509.071,-7534.460,-5238.779,0
14400.245,-15084.119,-13595.314,-9145.529,-12995.662,-899.769,-15507.439,-7533.477,-5241.842,0
14400.245,-15087.405,-13600.634,-9146.960,-12999.931,-898.942,-15511.753,-7530.102,-5241.842,0
14400.245,-15087.964,-13603.361,-9148.972,-13005.407,-899.769,-15516.782,-7528.984,-5238.958,0
14400.245,-15086.108,-13601.863,-9148.793,-13004.670,-901.155,-15517.051,-7525.631,-5237.953,0
14400.245,-15086.467,-13599.182,-9148.435,-13000.132,-903.256,-15515.173,-7531.912,-5240.903,0
14400.245,-15086.734,-13595.985,-9147.272,-12996.892,-902.116,-15511.977,-7535.376,-5241.618,0
14400.245,-15088.366,-13597.259,-9149.128,-13001.316,-901.088,-15513.430,-7534.907,-5241.305,0
14400.245,-15090.288,-13601.014,-9151.452,-13006.659,-901.848,-15517.296,-7531.085,-5242.333,0
14400.245,-15090.154,-13604.031,-9152.883,-13007.307,-901.424,-15516.782,-7525.586,-5244.479,0
14400.245,-15089.081,-13600.746,-9152.190,-13001.518,-900.932,-15511.351,-7523.597,-5239.361,0
14400.246,-15088.746,-13598.533,-9150.804,-12998.344,-900.395,-15509.071,-7525.966,-5233.817,0
14400.305,-15088.255,-13599.092,-9150.514,-13000.534,-898.428,-15510.747,-7525.318,-5231.336,0
14400.305,-15089.216,-13604.612,-9152.727,-13006.659,-899.054,-15515.665,-7525.520,-5233.907,0
14400.305,-15089.238,-13606.870,-9152.302,-13006.503,-899.904,-15517.006,-7525.497,-5237.372,0
14400.305,-15087.360,-13603.138,-9149.374,-12999.171,-901.379,-15514.234,-7528.425,-5237.215,0
14400.306,-15088.344,-13601.640,-9149.329,-12996.444,-903.435,-15515.441,-7535.958,-5242.087,0
14400.306,-15090.065,-13604.144,-9150.134,-13000.512,-902.809,-15519.934,-7536.695,-5243.250,0
14400.306,-15089.350,-13605.977,-9150.156,-13005.475,-901.714,-15523.085,-7531.711,-5242.400,0
14400.306,-15088.880,-13607.608,-9148.368,-13004.781,-902.362,-15521.387,-7527.665,-5238.511,0
14400.306,-15086.847,-13603.540,-9145.015,-12998.836,-903.614,-15518.190,-7533.142,-5244.814,0
14400.306,-15086.221,-13599.874,-9145.037,-12997.227,-903.592,-15516.850,-7537.031,-5246.536,0
14400.307,-15086.646,-13600.411,-9146.178,-13001.652,-902.474,-15519.196,-7534.907,-5241.774,0
14400.307,-15088.500,-13603.875,-9147.519,-13006.323,-901.871,-15522.594,-7529.744,-5242.021,0
14400.307,-15088.277,-13605.172,-9147.607,-13006.346,-901.044,-15522.102,-7527.844,-5240.166,0
14400.307,-15085.505,-13603.048,-9145.597,-13000.713,-901.960,-15518.861,-7528.045,-5241.976,0
14400.307,-15086.243,-13601.193,-9147.563,-12999.462,-903.882,-15518.213,-7531.085,-5246.111,0
14400.364,-15087.315,-13603.741,-9151.005,-13004.066,-902.720,-15519.129,-7531.398,-5243.004,0
14400.364,-15088.188,-13606.870,-9153.732,-13009.989,-902.049,-15521.990,-7527.330,-5238.824,0
14400.364,-15086.623,-13607.787,-9153.620,-13009.766,-902.787,-15523.041,-7523.351,-5238.690,0
14400.364,-15083.493,-13602.959,-9151.497,-13001.987,-903.525,-15518.883,-7527.911,-5241.864,0
14400.364,-15083.985,-13601.797,-9151.296,-12998.522,-902.765,-15516.447,-7527.263,-5240.724,0
14400.364,-15085.505,-13603.093,-9154.582,-13003.888,-901.759,-15519.174,-7528.828,-5237.774,0
14400.365,-15085.125,-13605.753,-9157.935,-13009.028,-902.049,-15521.990,-7529.990,-5240.344,0
14400.365,-15082.443,-13606.938,-9158.448,-13008.559,-903.323,-15522.795,-7532.896,-5242.378,0
14400.365,-15080.074,-13602.512,-9153.397,-13001.540,-904.508,-15520.806,-7531.465,-5249.218,0
14400.365,-15081.214,-13597.170,-9152.168,-12999.462,-905.559,-15519.353,-7534.840,-5248.123,0
14400.365,-15084.008,-13599.941,-9154.671,-13004.110,-905.626,-15521.655,-7538.506,-5242.177,0
14400.366,-15084.656,-13602.847,-9157.152,-13009.363,-906.386,-15525.790,-7536.583,-5245.329,0
14400.366,-15084.343,-13602.243,-9156.280,-13008.425,-904.933,-15524.181,-7536.472,-5245.262,0
14400.366,-15087.584,-13605.037,-9154.402,-13003.239,-903.860,-15519.576,-7535.198,-5239.986,0
14400.366,-15088.635,-13606.110,-9153.017,-12999.350,-903.055,-15517.051,-7532.784,-5243.652,0
14400.424,-15093.061,-13610.514,-9157.800,-13005.139,-905.223,-15521.588,-7535.153,-5248.056,0
14400.424,-15093.843,-13609.843,-9160.103,-13009.900,-906.520,-15524.136,-7533.142,-5244.569,0
14400.424,-15090.758,-13607.340,-9158.828,-13009.811,-908.107,-15524.940,-7536.382,-5247.407,0
14400.424,-15088.299,-13604.993,-9154.381,-13002.322,-907.302,-15520.180,-7535.667,-5249.285,0
14400.424,-15089.462,-13603.540,-9154.425,-12999.238,-908.084,-15519.644,-7540.406,-5251.967,0
14400.424,-15090.624,-13600.970,-9156.348,-13003.306,-907.078,-15524.091,-7542.574,-5253.040,0
14400.424,-15092.211,-13603.518,-9157.867,-13008.022,-906.050,-15527.354,-7535.600,-5248.279,0
14400.424,-15092.702,-13605.194,-9158.359,-13008.760,-907.861,-15528.517,-7535.689,-5249.285,0
14400.424,-15089.886,-13601.841,-9153.665,-13001.630,-907.302,-15523.443,-7541.702,-5248.726,0
14400.425,-15090.848,-13602.579,-9151.877,-12998.411,-906.207,-15521.096,-7544.563,-5248.614,0
14400.425,-15093.932,-13606.334,-9155.028,-13003.038,-903.815,-15522.840,-7537.813,-5245.932,0
14400.425,-15095.229,-13609.776,-9157.264,-13008.134,-901.044,-15524.784,-7531.979,-5243.541,0
14400.425,-15093.730,-13608.837,-9157.510,-13008.246,-903.994,-15525.768,-7533.901,-5244.591,0
14400.425,-15088.076,-13600.590,-9152.749,-13000.669,-906.006,-15521.476,-7536.427,-5245.262,0
14400.425,-15088.746,-13597.394,-9154.246,-12997.539,-906.341,-15518.995,-7538.774,-5248.257,0
14400.484,-15095.475,-13604.345,-9160.035,-13002.166,-906.207,-15521.767,-7542.104,-5250.000,0
14400.484,-15097.508,-13607.608,-9163.478,-13007.688,-907.369,-15525.320,-7541.948,-5248.838,0
14400.485,-15093.619,-13603.518,-9160.460,-13005.676,-905.827,-15522.795,-7542.283,-5250.291,0
14400.485,-15091.987,-13600.724,-9158.896,-12999.752,-904.955,-15517.072,-7545.010,-5254.314,0
14400.485,-15093.552,-13601.350,-9161.019,-12998.746,-905.693,-15516.156,-7542.395,-5254.292,0
14400.485,-15095.742,-13604.031,-9163.455,-13003.262,-904.553,-15519.129,-7542.060,-5248.167,0
14400.485,-15097.307,-13606.558,-9164.976,-13007.620,-903.078,-15522.191,-7538.931,-5249.106,0
14400.486,-15097.195,-13609.396,-9163.478,-13007.441,-903.122,-15521.812,-7535.086,-5252.481,0
14400.486,-15096.614,-13609.105,-9160.371,-13002.032,-903.368,-15516.045,-7537.701,-5243.943,0
14400.486,-15092.322,-13605.932,-9158.426,-12997.360,-902.541,-15512.982,-7542.730,-5245.485,0
14400.486,-15092.390,-13607.988,-9160.840,-13002.479,-902.854,-15518.459,-7545.636,-5251.654,0
14400.486,-15094.938,-13610.021,-9163.590,-13008.514,-902.385,-15525.053,-7547.804,-5252.459,0
14400.487,-15097.441,-13611.564,-9164.014,-13010.258,-903.100,-15527.958,-7543.826,-5255.208,0
14400.487,-15095.519,-13606.893,-9160.013,-13003.932,-902.832,-15524.113,-7543.803,-5251.274,0
14400.487,-15092.077,-13601.596,-9158.873,-13000.490,-902.899,-15522.549,-7546.575,-5254.806,0
14400.544,-15090.713,-13599.740,-9159.454,-13003.865,-902.541,-15524.829,-7546.262,-5254.426,0
14400.545,-15089.864,-13600.009,-9160.616,-13007.844,-902.988,-15526.394,-7540.115,-5251.006,0
14400.545,-15088.344,-13597.840,-9158.784,-13006.949,-904.374,-15525.343,-7535.533,-5250.827,0
14400.545,-15085.394,-13592.476,-9155.498,-12999.686,-904.664,-15520.470,-7537.098,-5249.620,0
14400.545,-15085.170,-13590.777,-9155.923,-12997.718,-906.408,-15519.486,-7543.870,-5252.124,0
14400.545,-15086.064,-13590.688,-9158.448,-13002.211,-905.782,-15522.705,-7547.312,-5251.319,0
14400.546,-15087.494,-13593.079,-9160.840,-13008.179,-905.402,-15525.388,-7543.445,-5248.793,0
14400.546,-15087.473,-13592.945,-9161.108,-13008.335,-905.804,-15524.248,-7538.595,-5248.011,0
14400.546,-15084.231,-13589.838,-9157.376,-13001.115,-906.341,-15519.845,-7540.518,-5249.687,0
14400.546,-15082.667,-13586.419,-9156.325,-12998.031,-906.453,-15518.123,-7541.210,-5253.800,0
14400.546,-15086.176,-13591.604,-9160.550,-13004.826,-906.944,-15522.481,-7539.780,-5249.844,0
14400.546,-15087.428,-13594.688,-9163.410,-13010.593,-905.581,-15524.002,-7539.132,-5239.606,0
14400.547,-15084.679,-13591.648,-9161.354,-13008.850,-903.994,-15521.699,-7535.824,-5238.802,0
14400.547,-15084.276,-13588.318,-9157.867,-13003.172,-903.726,-15519.040,-7539.266,-5247.542,0
14400.547,-15086.467,-13587.066,-9157.711,-13001.361,-905.134,-15520.090,-7548.653,-5255.432,0
14400.605,-15086.980,-13587.983,-9159.768,-13005.854,-905.000,-15524.427,-7551.671,-5256.438,0
14400.605,-15086.467,-13590.464,-9161.846,-13011.018,-903.659,-15526.349,-7553.437,-5254.761,0
14400.605,-15086.689,-13590.554,-9161.041,-13011.085,-902.921,-15524.628,-7548.542,-5256.035,0
14400.605,-15085.640,-13586.776,-9159.253,-13005.317,-903.927,-15521.968,-7550.486,-5261.333,0
14400.605,-15085.572,-13587.335,-9158.672,-13003.373,-904.329,-15520.783,-7553.973,-5263.143,0
14400.605,-15087.494,-13592.789,-9159.275,-13007.598,-904.732,-15524.918,-7553.705,-5265.155,0
14400.605,-15088.255,-13599.315,-9161.958,-13012.828,-905.447,-15529.232,-7549.369,-5261.355,0
14400.605,-15089.707,-13602.177,-9163.366,-13012.828,-907.749,-15530.707,-7550.665,-5259.120,0
14400.605,-15089.193,-13599.405,-9161.176,-13006.972,-910.767,-15530.171,-7557.706,-5267.077,0
14400.606,-15089.126,-13596.678,-9158.403,-13004.915,-910.856,-15529.746,-7559.740,-5273.626,0
14400.606,-15090.489,-13597.595,-9159.275,-13009.408,-909.984,-15532.562,-7558.846,-5272.888,0
14400.606,-15091.071,-13597.997,-9159.454,-13013.342,-907.906,-15533.747,-7553.258,-5265.825,0
14400.606,-15090.803,-13600.769,-9157.331,-13012.738,-908.285,-15532.183,-7553.146,-5263.031,0
14400.606,-15090.981,-13599.562,-9154.805,-13007.688,-908.464,-15527.511,-7558.980,-5259.388,0
14400.606,-15089.506,-13594.420,-9154.604,-13004.334,-907.503,-15524.270,-7561.573,-5255.253,0
14400.665,-15092.166,-13597.952,-9159.678,-13009.274,-908.241,-15529.522,-7553.146,-5257.913,0
14400.665,-15092.099,-13600.970,-9161.421,-13012.962,-906.833,-15531.311,-7542.797,-5258.404,0
14400.665,-15092.636,-13603.316,-9160.371,-13011.129,-906.497,-15530.863,-7543.781,-5262.562,0
14400.666,-15091.495,-13600.188,-9157.778,-13004.826,-906.408,-15526.461,-7548.966,-5262.495,0
14400.666,-15090.758,-13600.120,-9157.599,-13002.747,-904.866,-15524.672,-7550.129,-5262.853,0
14400.666,-15095.251,-13605.082,-9162.449,-13008.916,-904.374,-15526.617,-7548.899,-5257.041,0
14400.666,-15096.860,-13606.334,-9163.724,-13013.163,-903.368,-15527.466,-7545.703,-5254.046,0
14400.666,-15094.379,-13601.908,-9161.801,-13011.890,-904.486,-15526.975,-7547.089,-5252.414,0
14400.667,-15092.903,-13598.667,-9157.957,-13006.122,-905.380,-15524.427,-7551.157,-5253.129,0
14400.667,-15092.144,-13597.147,-9157.555,-13003.418,-905.626,-15524.427,-7552.923,-5256.639,0
14400.667,-15092.435,-13597.394,-9160.773,-13007.173,-905.737,-15528.338,-7552.364,-5256.348,0
14400.667,-15091.696,-13598.265,-9162.472,-13011.106,-906.073,-15532.764,-7553.683,-5257.265,0
14400.667,-15088.009,-13598.019,-9161.689,-13009.542,-907.034,-15533.076,-7556.253,-5261.131,0
14400.668,-15086.042,-13597.840,-9158.784,-13003.284,-908.308,-15529.679,-7555.649,-5264.193,0
14400.668,-15088.992,-13597.885,-9160.550,-13002.010,-908.285,-15526.572,-7557.103,-5264.774,0
14400.725,-15091.607,-13599.852,-9163.545,-13005.899,-906.028,-15526.505,-7555.940,-5263.769,0
14400.726,-15091.474,-13597.952,-9166.048,-13009.900,-904.843,-15526.729,-7555.918,-5257.309,0
14400.726,-15089.819,-13597.170,-9165.198,-13009.587,-904.664,-15525.209,-7555.247,-5254.336,0
14400.726,-15090.311,-13595.873,-9162.785,-13004.670,-903.748,-15520.851,-7552.208,-5256.326,0
14400.726,-15093.597,-13599.114,-9164.796,-13003.909,-903.905,-15520.269,-7552.140,-5256.772,0
14400.726,-15098.179,-13605.037,-9170.765,-13011.375,-905.268,-15525.835,-7554.152,-5263.255,0
14400.727,-15099.698,-13605.753,-9172.352,-13016.113,-904.262,-15528.405,-7553.929,-5266.339,0
14400.727,-15099.967,-13606.445,-9171.859,-13016.226,-903.927,-15526.952,-7551.224,-5266.161,0
14400.727,-15098.737,-13605.484,-9167.322,-13009.989,-903.167,-15521.633,-7548.072,-5258.404,0
14400.727,-15097.553,-13603.361,-9163.120,-13007.643,-902.653,-15519.509,-7550.643,-5253.420,0
14400.727,-15097.530,-13604.322,-9161.354,-13011.554,-901.245,-15522.571,-7547.983,-5256.438,0
14400.728,-15098.737,-13604.523,-9161.578,-13017.030,-899.412,-15523.711,-7543.110,-5246.536,0
14400.728,-15098.491,-13603.316,-9162.137,-13019.601,-900.798,-15523.935,-7539.780,-5241.842,0
14400.728,-15096.994,-13599.494,-9160.103,-13014.549,-901.938,-15520.917,-7541.389,-5245.642,0
14400.728,-15093.843,-13595.136,-9157.510,-13010.190,-901.088,-15519.531,-7539.892,-5249.508,0
14400.784,-15092.948,-13594.487,-9159.991,-13014.885,-900.619,-15522.415,-7539.601,-5244.703,0
14400.784,-15093.328,-13596.432,-9161.354,-13019.243,-899.032,-15522.884,-7533.723,-5235.941,0
14400.784,-15090.848,-13594.487,-9159.969,-13018.640,-898.741,-15520.851,-7530.168,-5238.221,0
14400.784,-15086.221,-13590.039,-9157.800,-13012.112,-901.066,-15516.850,-7535.488,-5241.283,0
14400.784,-15083.673,-13587.715,-9157.309,-13009.073,-904.285,-15516.670,-7542.909,-5247.027,0
14400.784,-15081.415,-13588.117,-9158.672,-13011.890,-903.793,-15519.397,-7541.210,-5247.452,0
14400.785,-15080.543,-13588.788,-9159.454,-13015.979,-903.525,-15522.481,-7539.109,-5246.156,0
14400.785,-15077.324,-13587.559,-9155.141,-13013.208,-902.608,-15520.448,-7533.231,-5245.194,0
14400.785,-15075.402,-13586.530,-9152.548,-13006.458,-903.949,-15517.520,-7535.555,-5245.642,0
14400.785,-15075.961,-13584.586,-9152.234,-13003.507,-905.246,-15517.431,-7543.468,-5250.604,0
14400.785,-15078.241,-13584.787,-9155.387,-13007.575,-907.146,-15522.929,-7547.737,-5254.604,0
14400.785,-15080.767,-13588.162,-9158.828,-13011.576,-908.800,-15528.651,-7545.614,-5250.983,0
14400.785,-15079.693,-13586.776,-9158.247,-13009.944,-909.828,-15530.372,-7541.657,-5253.174,0
14400.785,-15078.465,-13584.139,-9155.141,-13004.089,-910.409,-15525.835,-7542.999,-5250.670,0
14400.785,-15079.672,-13586.955,-9154.604,-13001.361,-911.191,-15524.963,-7546.709,-5253.644,0
14400.844,-15083.985,-13594.510,-9158.672,-13006.949,-912.331,-15531.154,-7548.877,-5257.555,0
14400.845,-15087.562,-13600.679,-9161.891,-13011.151,-911.996,-15535.200,-7545.658,-5253.442,0
14400.845,-15087.473,-13603.138,-9161.578,-13009.185,-912.555,-15536.295,-7550.017,-5257.846,0
14400.845,-15084.679,-13595.247,-9158.001,-13001.562,-911.683,-15531.981,-7552.208,-5263.210,0
14400.845,-15086.712,-13593.839,-9158.448,-13000.468,-911.214,-15530.551,-7552.699,-5263.143,0
14400.845,-15088.188,-13595.382,-9160.125,-13004.356,-910.185,-15534.082,-7553.035,-5264.060,0
14400.846,-15088.232,-13596.611,-9162.002,-13008.536,-909.560,-15536.251,-7549.257,-5257.823,0
14400.846,-15087.473,-13597.236,-9161.063,-13008.425,-909.023,-15533.770,-7545.770,-5251.073,0
14400.846,-15089.707,-13601.395,-9159.589,-13003.061,-909.962,-15532.026,-7552.140,-5263.031,0
14400.846,-15091.495,-13602.959,-9161.801,-13000.981,-910.074,-15531.668,-7554.532,-5267.949,0
14400.846,-15093.708,-13605.597,-9166.093,-13004.960,-909.068,-15532.271,-7554.487,-5257.197,0
14400.846,-15095.273,-13607.809,-9167.836,-13008.805,-909.314,-15536.563,-7557.460,-5262.540,0
14400.847,-15095.385,-13608.346,-9167.054,-13009.252,-911.996,-15540.072,-7562.288,-5273.782,0
14400.847,-15095.385,-13609.709,-9164.126,-13003.463,-914.991,-15539.782,-7567.787,-5274.363,0
14400.847,-15093.954,-13605.753,-9161.779,-13000.109,-914.656,-15539.850,-7569.955,-5274.475,0
14400.905,-15093.932,-13605.194,-9162.896,-13003.687,-913.046,-15542.576,-7567.071,-5272.463,0
14400.905,-15100.369,-13612.883,-9168.574,-13012.381,-914.566,-15545.571,-7562.735,-5263.702,0
14400.905,-15100.459,-13612.727,-9166.093,-13012.270,-914.700,-15544.342,-7554.599,-5267.323,0
14400.905,-15096.838,-13608.233,-9160.080,-13003.775,-913.829,-15537.927,-7553.168,-5267.993,0
14400.906,-15095.854,-13606.870,-9160.170,-13001.719,-914.186,-15534.104,-7553.683,-5261.779,0
14400.906,-15094.603,-13605.775,-9160.840,-13004.535,-910.789,-15534.104,-7550.218,-5260.327,0
14400.906,-15096.413,-13610.559,-9162.517,-13010.034,-908.531,-15536.586,-7544.161,-5254.895,0
14400.906,-15097.419,-13614.939,-9163.478,-13009.811,-908.062,-15536.385,-7546.508,-5252.190,0
14400.906,-15098.872,-13616.951,-9162.807,-13005.116,-910.767,-15535.245,-7553.728,-5259.522,0
14400.906,-15098.872,-13614.269,-9162.807,-13002.144,-912.197,-15534.954,-7559.650,-5264.551,0
14400.907,-15100.704,-13615.207,-9165.512,-13006.189,-911.996,-15539.581,-7559.830,-5267.010,0
14400.907,-15101.777,-13617.600,-9168.104,-13012.336,-914.455,-15545.504,-7561.908,-5271.436,0
14400.907,-15099.363,-13615.990,-9167.501,-13011.621,-916.600,-15545.526,-7561.863,-5271.838,0
14400.907,-15096.972,-13611.832,-9165.914,-13005.139,-917.472,-15543.313,-7568.122,-5274.721,0
14400.907,-15094.379,-13606.021,-9165.467,-13000.333,-916.846,-15541.593,-7575.521,-5280.689,0
14400.965,-15093.016,-13604.367,-9167.434,-13003.642,-917.226,-15543.560,-7576.034,-5278.163,0
14400.965,-15093.843,-13609.061,-9170.272,-13010.303,-918.903,-15548.119,-7572.257,-5275.951,0
14400.965,-15093.484,-13609.978,-9169.400,-13010.102,-919.975,-15549.215,-7571.564,-5282.522,0
14400.966,-15092.770,-13608.055,-9165.601,-13003.172,-918.612,-15542.710,-7567.027,-5277.627,0
14400.966,-15094.714,-13610.179,-9167.479,-13002.166,-918.701,-15539.268,-7570.156,-5273.089,0
14400.966,-15097.464,-13612.570,-9170.406,-13008.312,-917.338,-15542.062,-7568.457,-5272.643,0
14400.966,-15098.827,-13615.811,-9171.278,-13013.319,-916.578,-15546.309,-7567.272,-5273.581,0
14400.966,-15100.213,-13618.046,-9170.451,-13013.432,-916.891,-15546.555,-7565.619,-5271.927,0
14400.967,-15099.833,-13612.659,-9168.261,-13007.731,-916.891,-15542.106,-7567.317,-5274.006,0
14400.967,-15099.051,-13609.329,-9166.339,-13004.066,-914.678,-15538.017,-7569.575,-5275.660,0
14400.967,-15097.284,-13611.318,-9167.166,-13007.441,-912.778,-15538.061,-7569.463,-5271.346,0
14400.967,-15094.691,-13611.766,-9169.915,-13012.448,-913.851,-15541.883,-7569.888,-5276.554,0
14400.967,-15092.233,-13608.613,-9168.618,-13010.995,-911.594,-15537.972,-7563.562,-5273.604,0
14400.968,-15092.725,-13606.379,-9168.887,-13006.033,-912.912,-15532.205,-7566.826,-5261.802,0
14400.968,-15091.652,-13603.897,-9167.434,-13003.105,-914.544,-15531.087,-7569.329,-5264.506,0
14401.025,-15092.435,-13606.490,-9168.104,-13006.413,-913.605,-15534.418,-7565.909,-5263.858,0
14401.025,-15092.390,-13607.272,-9170.295,-13011.196,-914.768,-15538.865,-7567.429,-5265.289,0
14401.025,-15091.093,-13606.356,-9169.602,-13010.570,-916.287,-15539.938,-7569.731,-5269.714,0
14401.025,-15087.450,-13599.159,-9165.981,-13003.687,-917.964,-15537.391,-7573.866,-5275.437,0
14401.026,-15084.478,-13596.164,-9164.752,-12999.417,-917.718,-15535.088,-7574.961,-5275.146,0
14401.026,-15084.142,-13599.383,-9166.808,-13003.574,-917.584,-15540.743,-7576.146,-5279.102,0
14401.026,-15083.404,-13603.205,-9166.897,-13007.352,-917.494,-15545.280,-7571.609,-5280.622,0
14401.026,-15083.136,-13604.411,-9166.741,-13006.078,-918.254,-15545.594,-7571.788,-5279.862,0
14401.026,-15085.170,-13605.373,-9166.428,-13000.378,-919.528,-15541.570,-7574.961,-5277.761,0
14401.026,-15086.332,-13605.977,-9166.294,-12997.740,-920.758,-15540.698,-7578.985,-5280.175,0
14401.026,-15085.729,-13606.088,-9166.271,-13001.429,-919.975,-15544.856,-7581.578,-5279.840,0
14401.026,-15086.689,-13606.982,-9168.193,-13008.111,-920.601,-15549.595,-7582.896,-5280.577,0
14401.026,-15085.796,-13606.021,-9167.210,-13008.201,-920.937,-15549.259,-7573.822,-5282.566,0
14401.027,-15084.298,-13603.585,-9165.266,-13002.636,-922.479,-15547.449,-7569.865,-5290.412,0
14401.027,-15083.427,-13602.623,-9163.679,-12998.479,-919.931,-15543.984,-7570.514,-5284.086,0
14401.085,-15085.081,-13604.322,-9164.818,-13001.049,-917.830,-15545.795,-7571.854,-5282.656,0
14401.086,-15088.232,-13611.027,-9166.138,-13006.927,-917.584,-15550.198,-7570.089,-5282.522,0
14401.086,-15086.913,-13610.111,-9163.545,-13005.810,-917.383,-15547.404,-7568.100,-5275.839,0
14401.086,-15084.880,-13603.160,-9160.080,-12999.082,-919.148,-15543.939,-7569.552,-5276.867,0
14401.086,-15083.158,-13599.427,-9158.739,-12995.483,-918.679,-15542.911,-7574.112,-5285.182,0
14401.086,-15084.991,-13602.579,-9161.936,-13001.876,-919.573,-15548.187,-7575.028,-5291.351,0
14401.086,-15085.818,-13606.513,-9163.478,-13007.105,-919.014,-15549.796,-7568.904,-5278.745,0
14401.086,-15084.991,-13607.630,-9163.812,-13007.062,-920.221,-15549.505,-7570.044,-5273.134,0
14401.086,-15082.309,-13603.920,-9161.019,-13000.981,-920.825,-15545.840,-7576.168,-5281.852,0
14401.086,-15080.610,-13600.724,-9158.694,-12997.919,-918.925,-15541.570,-7578.270,-5283.662,0
14401.086,-15080.253,-13599.785,-9158.158,-13002.188,-916.444,-15542.777,-7572.749,-5277.493,0
14401.086,-15081.526,-13601.282,-9159.924,-13007.731,-915.594,-15545.393,-7560.053,-5273.805,0
14401.087,-15079.448,-13599.182,-9160.616,-13007.553,-916.690,-15543.202,-7557.729,-5268.887,0
14401.087,-15072.988,-13591.560,-9156.728,-12999.306,-917.405,-15537.011,-7560.388,-5268.708,0
14401.087,-15071.625,-13589.101,-9156.325,-12995.617,-917.450,-15534.507,-7558.667,-5269.558,0
14401.145,-15074.598,-13592.453,-9160.326,-13001.652,-917.159,-15537.637,-7552.185,-5265.602,0
14401.145,-15074.084,-13592.565,-9161.511,-13006.503,-916.377,-15538.083,-7549.682,-5257.019,0
14401.145,-15070.574,-13589.727,-9160.349,-13005.676,-916.936,-15536.854,-7556.208,-5254.917,0
14401.145,-15066.528,-13587.380,-9156.169,-12998.054,-917.293,-15533.166,-7561.841,-5260.841,0
14401.145,-15068.183,-13587.805,-9155.498,-12995.416,-916.109,-15532.294,-7555.806,-5263.590,0
14401.145,-15068.026,-13587.357,-9157.442,-12999.484,-916.131,-15536.898,-7555.493,-5265.736,0
14401.145,-15066.551,-13586.038,-9158.851,-13003.664,-915.617,-15541.078,-7553.258,-5264.886,0
14401.146,-15066.842,-13589.123,-9158.181,-13002.144,-914.320,-15540.386,-7555.359,-5261.422,0
14401.146,-15071.535,-13594.376,-9156.638,-12997.294,-916.444,-15539.670,-7563.853,-5269.916,0
14401.146,-15075.357,-13595.136,-9157.756,-12996.198,-917.338,-15540.698,-7568.994,-5276.040,0
14401.146,-15079.783,-13599.293,-9160.862,-13002.278,-915.930,-15544.163,-7569.821,-5276.442,0
14401.146,-15083.382,-13603.897,-9162.494,-13007.441,-913.538,-15544.900,-7568.413,-5274.140,0
14401.146,-15087.227,-13608.658,-9162.360,-13008.067,-913.315,-15544.319,-7568.211,-5275.951,0
14401.146,-15089.148,-13610.402,-9160.975,-13003.843,-914.812,-15541.235,-7572.302,-5284.020,0
14401.146,-15090.713,-13614.403,-9161.622,-13003.396,-913.918,-15539.089,-7575.610,-5285.450,0
14401.204,-15093.149,-13617.935,-9164.282,-13008.604,-910.923,-15540.654,-7570.558,-5281.069,0
14401.205,-15094.938,-13619.790,-9166.473,-13013.879,-910.096,-15543.492,-7565.842,-5283.818,0
14401.205,-15096.413,-13620.259,-9168.127,-13013.678,-912.197,-15542.979,-7570.066,-5279.370,0
14401.205,-15095.161,-13616.906,-9164.573,-13005.787,-913.359,-15537.815,-7570.514,-5277.225,0
14401.205,-15094.088,-13613.151,-9164.976,-13003.999,-914.768,-15538.307,-7567.250,-5283.058,0
14401.205,-15093.664,-13611.766,-9167.166,-13009.229,-913.873,-15540.989,-7566.289,-5270.966,0
14401.205,-15093.016,-13613.375,-9167.031,-13012.292,-913.315,-15544.073,-7566.602,-5266.920,0
14401.205,-15093.172,-13615.163,-9164.886,-13011.286,-913.784,-15542.845,-7556.030,-5265.870,0
14401.205,-15089.596,-13609.463,-9159.409,-13004.580,-913.270,-15535.580,-7551.917,-5261.534,0
14401.205,-15086.131,-13606.021,-9156.303,-13001.429,-912.219,-15530.797,-7552.364,-5259.455,0
14401.205,-15085.684,-13608.681,-9156.929,-13005.653,-911.750,-15532.696,-7551.582,-5258.404,0
14401.206,-15083.158,-13605.238,-9157.309,-13009.408,-913.270,-15536.184,-7554.018,-5260.081,0
14401.206,-15078.777,-13598.176,-9154.984,-13007.754,-912.041,-15532.271,-7550.732,-5255.387,0
14401.206,-15076.698,-13592.476,-9151.475,-13002.144,-912.376,-15528.651,-7550.598,-5257.398,0
14401.206,-15076.140,-13589.816,-9150.424,-12998.143,-911.638,-15528.494,-7555.135,-5261.489,0
14401.265,-15079.157,-13595.448,-9153.554,-13003.328,-913.270,-15535.110,-7556.387,-5265.199,0
14401.265,-15080.633,-13600.992,-9155.855,-13008.626,-916.422,-15540.318,-7556.968,-5267.501,0
14401.265,-15078.956,-13599.852,-9154.648,-13005.832,-916.019,-15539.246,-7556.991,-5266.339,0
14401.265,-15078.889,-13599.449,-9153.062,-13000.154,-915.572,-15537.301,-7562.288,-5270.698,0
14401.265,-15081.102,-13601.551,-9151.854,-12998.076,-913.113,-15535.401,-7567.496,-5272.821,0
14401.265,-15087.114,-13608.278,-9155.767,-13003.820,-910.968,-15537.927,-7565.641,-5272.866,0
14401.265,-15090.400,-13611.229,-9160.013,-13010.258,-910.320,-15541.258,-7558.801,-5276.621,0
14401.265,-15090.267,-13611.922,-9159.879,-13009.341,-908.665,-15539.066,-7555.135,-5268.999,0
14401.265,-15089.015,-13608.927,-9157.555,-13003.865,-908.062,-15535.490,-7559.382,-5266.987,0
14401.266,-15088.009,-13606.669,-9157.130,-13001.764,-905.849,-15533.188,-7561.461,-5266.562,0
14401.266,-15088.188,-13607.385,-9159.052,-13006.145,-904.217,-15536.295,-7555.516,-5266.473,0
14401.266,-15089.081,-13609.463,-9163.075,-13011.599,-905.492,-15541.012,-7554.130,-5267.658,0
14401.266,-15085.706,-13605.798,-9162.718,-13009.855,-906.453,-15540.564,-7556.298,-5264.372,0
14401.266,-15080.879,-13600.120,-9158.717,-13001.786,-906.743,-15536.921,-7562.467,-5271.950,0
14401.266,-15082.421,-13600.522,-9158.717,-12999.752,-908.576,-15538.553,-7569.508,-5281.963,0
14401.325,-15084.142,-13604.300,-9160.952,-13005.050,-910.387,-15544.387,-7573.531,-5283.684,0
14401.325,-15081.684,-13604.300,-9162.360,-13007.709,-910.252,-15546.421,-7578.314,-5277.358,0
14401.325,-15082.152,-13604.612,-9162.718,-13007.105,-912.152,-15545.169,-7576.839,-5273.604,0
14401.325,-15083.874,-13603.384,-9159.119,-13001.697,-911.951,-15540.877,-7564.188,-5274.252,0
14401.326,-15087.227,-13605.127,-9157.756,-12999.528,-909.761,-15537.056,-7552.811,-5271.950,0
14401.326,-15091.987,-13611.363,-9159.074,-13004.603,-907.570,-15536.139,-7553.884,-5259.566,0
14401.326,-15096.011,-13616.594,-9160.013,-13009.743,-907.794,-15536.452,-7555.694,-5255.141,0
14401.326,-15098.692,-13619.723,-9157.397,-13008.090,-906.430,-15532.540,-7546.933,-5253.979,0
14401.326,-15104.035,-13622.539,-9156.325,-13002.859,-906.386,-15526.505,-7548.564,-5253.554,0
14401.327,-15111.321,-13627.993,-9157.152,-13002.278,-906.207,-15523.443,-7547.111,-5249.844,0
14401.327,-15117.960,-13636.039,-9159.074,-13007.844,-905.223,-15526.482,-7541.680,-5245.708,0
14401.327,-15123.794,-13641.918,-9159.723,-13013.387,-904.776,-15529.970,-7539.199,-5243.071,0
14401.327,-15124.956,-13643.371,-9157.219,-13011.644,-904.664,-15528.964,-7540.406,-5242.825,0
14401.327,-15127.526,-13644.734,-9156.034,-13006.524,-905.469,-15526.281,-7541.613,-5246.558,0
14401.327,-15128.421,-13643.930,-9155.811,-13005.229,-903.837,-15524.449,-7539.422,-5246.982,0
14401.385,-15130.097,-13649.450,-9156.638,-13010.794,-900.596,-15526.505,-7538.059,-5239.338,0
14401.386,-15129.292,-13649.384,-9158.158,-13016.650,-900.261,-15528.360,-7543.043,-5232.767,0
14401.386,-15127.348,-13647.014,-9157.890,-13015.912,-901.625,-15527.198,-7538.595,-5233.795,0
14401.386,-15123.995,-13644.041,-9154.626,-13008.626,-901.021,-15521.699,-7537.724,-5237.617,0
14401.386,-15123.771,-13643.862,-9156.012,-13008.090,-902.541,-15523.309,-7541.568,-5242.870,0
14401.386,-15121.089,-13637.135,-9158.382,-13011.330,-904.106,-15528.808,-7540.182,-5251.319,0
14401.386,-15119.234,-13633.312,-9161.556,-13014.571,-903.167,-15530.596,-7538.282,-5248.145,0
14401.386,-15114.562,-13628.306,-9162.182,-13013.543,-905.156,-15529.120,-7541.412,-5250.112,0
14401.386,-15108.930,-13622.584,-9159.856,-13006.793,-907.548,-15526.281,-7550.039,-5259.231,0
14401.386,-15106.472,-13621.041,-9160.394,-13004.178,-908.330,-15525.320,-7550.397,-5259.812,0
14401.386,-15106.248,-13619.790,-9162.293,-13009.162,-906.386,-15525.991,-7549.123,-5252.235,0
14401.386,-15103.699,-13612.458,-9163.679,-13013.275,-905.000,-15525.388,-7549.391,-5249.911,0
14401.386,-15100.704,-13609.463,-9162.203,-13010.884,-905.000,-15523.645,-7541.389,-5249.352,0
14401.386,-15096.949,-13608.189,-9159.052,-13003.217,-904.821,-15518.525,-7542.797,-5249.844,0
14401.387,-15098.536,-13611.967,-9160.214,-13003.083,-907.973,-15521.029,-7551.671,-5255.767,0
14401.446,-15099.944,-13615.498,-9163.611,-13008.067,-907.168,-15524.672,-7551.917,-5251.475,0
14401.446,-15100.392,-13616.884,-9165.132,-13012.313,-905.179,-15526.371,-7549.950,-5245.686,0
14401.446,-15099.899,-13617.957,-9164.014,-13011.085,-905.223,-15526.103,-7550.509,-5252.369,0
14401.447,-15097.218,-13614.537,-9160.930,-13005.296,-906.855,-15523.867,-7552.587,-5257.711,0
14401.447,-15094.781,-13610.380,-9158.784,-13002.725,-905.044,-15520.872,-7550.486,-5251.833,0
14401.447,-15097.195,-13613.821,-9160.952,-13007.598,-903.659,-15523.645,-7544.250,-5249.888,0
14401.447,-15094.893,-13613.732,-9162.494,-13011.151,-904.508,-15527.332,-7550.643,-5247.765,0
14401.447,-15092.166,-13609.664,-9161.913,-13009.654,-907.950,-15528.606,-7568.479,-5250.089,0
14401.447,-15089.573,-13604.523,-9157.979,-13002.233,-908.263,-15525.231,-7556.410,-5252.570,0
14401.448,-15090.579,-13604.188,-9158.649,-13000.735,-907.570,-15526.438,-7544.697,-5254.090,0
14401.448,-15091.004,-13603.138,-9161.287,-13005.519,-907.458,-15530.976,-7550.419,-5255.923,0
14401.448,-15088.389,-13600.522,-9163.656,-13009.721,-907.816,-15534.820,-7552.341,-5258.516,0
14401.448,-15085.952,-13600.455,-9163.008,-13009.341,-910.185,-15535.513,-7560.589,-5262.249,0
14401.448,-15086.176,-13599.852,-9160.907,-13003.820,-910.923,-15531.892,-7561.640,-5265.870,0
14401.449,-15086.847,-13599.494,-9160.527,-13002.322,-908.911,-15529.746,-7559.941,-5263.009,0
14401.506,-15083.650,-13594.442,-9161.242,-13004.871,-906.386,-15529.255,-7561.305,-5255.610,0
14401.506,-15084.679,-13596.432,-9161.443,-13009.632,-904.776,-15531.602,-7556.633,-5254.158,0
14401.506,-15086.623,-13598.019,-9162.248,-13009.967,-907.391,-15532.652,-7569.217,-5260.237,0
14401.507,-15087.338,-13596.768,-9159.723,-13002.814,-907.302,-15528.629,-7576.057,-5262.830,0
14401.507,-15085.796,-13593.437,-9159.208,-12999.618,-906.900,-15527.466,-7571.452,-5265.780,0
14401.507,-15085.237,-13594.420,-9159.230,-13004.446,-905.603,-15528.405,-7556.164,-5261.265,0
14401.507,-15086.131,-13597.035,-9159.477,-13011.375,-904.285,-15528.853,-7546.083,-5251.744,0
14401.507,-15086.578,-13597.885,-9159.834,-13011.330,-907.078,-15528.271,-7551.291,-5255.476,0
14401.507,-15085.550,-13596.142,-9157.241,-13002.658,-907.526,-15522.661,-7555.940,-5252.816,0
14401.508,-15083.113,-13592.677,-9157.778,-12999.864,-907.347,-15522.146,-7555.359,-5252.794,0
14401.508,-15082.041,-13594.085,-9157.442,-13004.692,-905.849,-15525.433,-7554.107,-5252.190,0
14401.508,-15083.561,-13599.159,-9159.589,-13009.766,-906.095,-15529.925,-7556.968,-5250.738,0
14401.508,-15082.577,-13596.723,-9159.901,-13008.246,-909.247,-15532.250,-7558.623,-5253.710,0
14401.508,-15078.085,-13589.816,-9156.861,-13002.144,-912.711,-15532.250,-7562.981,-5264.797,0
14401.508,-15073.815,-13584.407,-9156.057,-12999.126,-913.225,-15531.602,-7570.178,-5269.692,0
14401.509,-15077.280,-13588.229,-9161.645,-13006.257,-915.796,-15538.687,-7573.419,-5270.184,0
14401.566,-15077.950,-13591.515,-9163.299,-13010.638,-915.371,-15542.464,-7574.179,-5260.438,0
14401.566,-15075.648,-13591.962,-9161.734,-13008.269,-913.538,-15541.950,-7565.350,-5262.853,0
14401.566,-15074.240,-13590.800,-9158.426,-13001.764,-912.666,-15537.458,-7567.429,-5271.346,0
14401.566,-15076.318,-13592.990,-9159.208,-13001.697,-911.929,-15535.267,-7577.778,-5273.380,0
14401.566,-15077.973,-13595.873,-9163.410,-13007.441,-910.521,-15536.631,-7577.845,-5270.474,0
14401.567,-15080.096,-13598.242,-9167.367,-13013.678,-910.252,-15539.179,-7566.513,-5270.966,0
14401.567,-15081.393,-13598.063,-9166.048,-13013.319,-909.045,-15536.385,-7565.283,-5268.127,0
14401.567,-15081.929,-13594.845,-9162.763,-13008.111,-906.788,-15526.952,-7561.595,-5257.376,0
14401.567,-15084.254,-13600.500,-9164.148,-13007.530,-906.721,-15524.561,-7562.534,-5260.036,0
14401.567,-15086.243,-13604.076,-9167.992,-13012.202,-906.050,-15526.796,-7566.200,-5258.292,0
14401.567,-15087.025,-13602.042,-9170.184,-13016.248,-906.944,-15530.618,-7568.726,-5256.125,0
14401.567,-15086.533,-13603.249,-9167.881,-13014.974,-908.956,-15532.384,-7578.068,-5262.361,0
14401.567,-15084.231,-13600.970,-9163.791,-13007.530,-910.767,-15528.964,-7579.141,-5266.764,0
14401.568,-15084.455,-13599.315,-9164.416,-13005.608,-911.996,-15530.126,-7582.963,-5275.951,0
14401.568,-15086.176,-13601.237,-9167.501,-13009.989,-911.705,-15533.479,-7582.762,-5274.073,0
14401.626,-15087.629,-13602.311,-9167.992,-13013.789,-910.007,-15534.887,-7577.957,-5270.161,0
14401.627,-15088.925,-13603.205,-9168.261,-13014.929,-911.862,-15536.362,-7574.917,-5266.920,0
14401.627,-15086.689,-13597.438,-9165.557,-13008.090,-912.890,-15532.875,-7576.415,-5270.094,0
14401.627,-15085.796,-13594.600,-9165.489,-13004.915,-915.147,-15533.233,-7582.740,-5278.878,0
14401.627,-15085.326,-13596.209,-9167.881,-13008.134,-916.578,-15538.284,-7586.674,-5284.534,0
14401.627,-15082.421,-13594.130,-9168.842,-13011.375,-916.846,-15541.101,-7583.768,-5279.728,0
14401.628,-15079.984,-13592.297,-9167.144,-13011.151,-918.008,-15540.944,-7583.478,-5277.247,0
14401.628,-15076.497,-13587.805,-9163.165,-13004.894,-918.567,-15538.284,-7586.115,-5281.539,0
14401.628,-15074.441,-13585.391,-9161.242,-13001.540,-917.159,-15536.005,-7585.713,-5280.957,0
14401.628,-15077.727,-13589.392,-9164.707,-13007.195,-918.076,-15540.296,-7584.863,-5279.236,0
14401.628,-15078.353,-13590.956,-9166.227,-13011.196,-917.718,-15544.163,-7584.193,-5275.839,0
14401.628,-15079.202,-13590.174,-9165.579,-13010.861,-919.484,-15544.610,-7584.148,-5274.721,0
14401.629,-15078.755,-13587.737,-9163.746,-13004.491,-920.199,-15539.782,-7585.311,-5277.783,0
14401.629,-15080.387,-13589.436,-9166.316,-13004.312,-921.160,-15538.463,-7585.377,-5279.750,0
14401.629,-15081.169,-13589.794,-9168.819,-13008.737,-919.081,-15540.252,-7581.287,-5277.358,0
14401.687,-15079.828,-13589.928,-9167.813,-13012.270,-917.651,-15543.381,-7580.885,-5274.564,0
14401.688,-15081.303,-13593.750,-9167.390,-13012.716,-919.730,-15543.716,-7582.628,-5273.357,0
14401.688,-15081.549,-13591.090,-9165.444,-13005.273,-919.081,-15538.352,-7584.260,-5276.353,0
14401.688,-15084.343,-13593.102,-9167.456,-13003.217,-918.232,-15536.563,-7583.478,-5277.940,0
14401.688,-15086.623,-13595.382,-9170.586,-13007.575,-918.254,-15538.352,-7583.478,-5277.046,0
14401.688,-15085.617,-13593.861,-9170.519,-13011.554,-916.556,-15538.643,-7576.504,-5271.793,0
14401.688,-15083.449,-13592.900,-9169.199,-13010.749,-916.623,-15537.927,-7575.923,-5270.675,0
14401.689,-15080.096,-13589.503,-9166.160,-13002.904,-916.734,-15534.552,-7584.819,-5277.225,0
14401.689,-15082.220,-13588.542,-9167.971,-13001.831,-918.299,-15533.770,-7589.244,-5280.085,0
14401.689,-15083.024,-13588.721,-9171.010,-13007.978,-918.701,-15537.681,-7587.232,-5276.263,0
14401.689,-15083.561,-13592.186,-9171.726,-13013.744,-918.679,-15542.040,-7581.287,-5272.374,0
14401.689,-15081.817,-13593.325,-9170.451,-13011.956,-918.076,-15541.883,-7580.125,-5272.374,0
14401.689,-15080.007,-13590.218,-9168.932,-13004.379,-918.992,-15537.793,-7584.506,-5273.313,0
14401.690,-15081.974,-13590.174,-9168.998,-13002.837,-918.590,-15535.200,-7587.657,-5274.945,0
14401.690,-15085.371,-13593.906,-9172.352,-13009.587,-919.439,-15541.213,-7589.580,-5279.169,0
14401.747,-15086.646,-13596.834,-9174.341,-13014.684,-918.634,-15546.354,-7587.143,-5277.336,0
14401.747,-15086.869,-13598.466,-9172.933,-13013.454,-917.561,-15546.019,-7585.109,-5278.387,0
14401.747,-15085.617,-13597.058,-9170.697,-13006.949,-918.523,-15542.866,-7588.350,-5286.500,0
14401.747,-15085.125,-13596.320,-9170.607,-13004.044,-916.980,-15538.396,-7584.550,-5274.341,0
14401.747,-15085.662,-13595.940,-9173.179,-13009.408,-917.293,-15541.659,-7583.187,-5270.542,0
14401.747,-15085.394,-13592.319,-9174.095,-13014.370,-917.629,-15544.208,-7583.411,-5269.692,0
14401.747,-15084.433,-13589.279,-9172.083,-13013.230,-919.372,-15542.777,-7584.618,-5271.614,0
14401.747,-15083.784,-13587.938,-9168.954,-13006.346,-919.216,-15537.614,-7579.298,-5271.681,0
14401.747,-15084.433,-13590.441,-9170.004,-13005.050,-919.797,-15536.385,-7578.046,-5274.587,0
14401.747,-15085.773,-13594.107,-9172.999,-13009.252,-919.864,-15538.463,-7581.265,-5275.481,0
14401.747,-15087.338,-13598.511,-9174.430,-13014.795,-919.730,-15541.794,-7585.601,-5281.114,0
14401.748,-15088.746,-13600.478,-9174.251,-13015.711,-921.026,-15542.911,-7590.854,-5273.850,0
14401.748,-15085.260,-13595.471,-9170.026,-13007.530,-921.138,-15538.396,-7587.970,-5267.323,0
14401.748,-15084.991,-13593.348,-9169.312,-13005.475,-918.970,-15536.631,-7572.033,-5270.072,0
14401.748,-15089.641,-13597.639,-9172.463,-13012.046,-917.226,-15539.536,-7561.573,-5265.423,0
14401.806,-15089.327,-13598.734,-9174.162,-13016.628,-917.003,-15542.531,-7565.484,-5265.557,0
14401.806,-15088.210,-13597.661,-9175.123,-13015.354,-918.657,-15542.889,-7571.229,-5269.066,0
14401.806,-15084.119,-13589.279,-9174.095,-13007.620,-920.646,-15539.760,-7580.862,-5276.554,0
14401.806,-15083.337,-13587.604,-9174.050,-13004.894,-920.422,-15537.793,-7586.361,-5279.393,0
14401.807,-15085.684,-13592.900,-9177.939,-13011.219,-919.707,-15540.453,-7588.417,-5278.230,0
14401.807,-15085.125,-13594.912,-9178.118,-13015.220,-918.970,-15541.638,-7584.349,-5273.447,0
14401.807,-15083.561,-13594.152,-9177.045,-13014.191,-920.110,-15539.894,-7581.913,-5272.262,0
14401.807,-15082.600,-13590.084,-9174.407,-13007.508,-921.093,-15535.289,-7584.550,-5273.357,0
14401.807,-15083.203,-13590.308,-9173.871,-13005.653,-920.735,-15533.211,-7586.294,-5274.162,0
14401.807,-15086.601,-13594.241,-9178.073,-13012.023,-920.758,-15536.988,-7586.919,-5272.888,0
14401.807,-15088.434,-13594.040,-9180.442,-13016.561,-920.735,-15540.140,-7587.389,-5271.301,0
14401.807,-15091.294,-13596.432,-9181.784,-13016.963,-921.920,-15541.146,-7587.501,-5272.754,0
14401.807,-15094.804,-13596.275,-9181.717,-13012.672,-924.222,-15540.207,-7593.379,-5276.800,0
14401.807,-15097.396,-13597.147,-9182.745,-13011.442,-924.289,-15539.983,-7600.241,-5280.421,0
14401.807,-15099.431,-13602.243,-9184.108,-13015.354,-922.792,-15543.157,-7596.732,-5279.929,0
14401.867,-15099.967,-13609.284,-9183.460,-13019.243,-922.166,-15546.510,-7590.228,-5279.639,0
14401.867,-15097.352,-13609.440,-9181.918,-13017.566,-922.613,-15546.107,-7590.518,-5282.544,0
14401.867,-15095.229,-13605.060,-9178.587,-13010.995,-921.741,-15542.084,-7588.417,-5284.556,0
14401.867,-15094.759,-13605.417,-9179.235,-13009.476,-920.646,-15541.749,-7590.451,-5286.411,0
14401.867,-15094.490,-13606.043,-9182.119,-13014.348,-920.892,-15545.594,-7590.898,-5285.092,0
14401.867,-15091.809,-13605.977,-9182.678,-13019.153,-921.875,-15550.221,-7589.959,-5283.707,0
14401.867,-15087.048,-13600.009,-9180.912,-13016.024,-922.032,-15549.147,-7592.239,-5284.489,0
14401.867,-15085.617,-13597.281,-9178.186,-13009.855,-922.926,-15545.861,-7595.771,-5287.618,0
14401.867,-15085.885,-13596.768,-9177.716,-13008.492,-922.479,-15544.432,-7599.392,-5289.250,0
14401.867,-15088.947,-13600.500,-9179.102,-13013.633,-920.557,-15544.923,-7593.201,-5284.511,0
14401.868,-15090.021,-13601.171,-9180.688,-13018.371,-919.014,-15546.846,-7588.261,-5281.203,0
14401.868,-15091.540,-13601.551,-9181.292,-13018.416,-921.473,-15548.433,-7588.819,-5286.344,0
14401.868,-15088.389,-13595.247,-9176.866,-13011.151,-922.009,-15543.984,-7590.585,-5285.450,0
14401.868,-15088.232,-13593.124,-9176.263,-13009.677,-923.172,-15544.610,-7595.838,-5289.138,0
14401.868,-15095.005,-13602.020,-9180.778,-13015.242,-922.345,-15549.036,-7600.062,-5289.429,0
14401.927,-15098.760,-13606.110,-9183.930,-13019.913,-922.077,-15551.896,-7600.755,-5290.479,0
14401.927,-15096.413,-13604.076,-9181.649,-13017.343,-922.501,-15550.913,-7602.320,-5290.792,0
14401.927,-15095.720,-13603.853,-9177.761,-13010.683,-922.658,-15548.187,-7605.628,-5296.715,0
14401.927,-15097.128,-13604.747,-9178.051,-13009.944,-922.971,-15548.008,-7610.858,-5303.041,0
14401.927,-15102.112,-13610.491,-9180.800,-13015.711,-922.099,-15551.383,-7606.679,-5302.884,0
14401.927,-15106.136,-13618.851,-9182.208,-13020.808,-920.802,-15552.925,-7599.727,-5288.535,0
14401.927,-15103.834,-13618.292,-9179.325,-13018.125,-921.026,-15551.360,-7599.705,-5285.159,0
14401.927,-15102.649,-13615.990,-9176.308,-13012.135,-924.602,-15549.080,-7606.701,-5295.709,0
14401.927,-15103.387,-13615.699,-9176.195,-13011.956,-925.206,-15548.589,-7607.550,-5302.214,0
14401.928,-15103.096,-13615.767,-9177.425,-13016.829,-921.920,-15547.181,-7597.604,-5283.081,0
14401.928,-15099.542,-13614.336,-9178.543,-13021.299,-922.278,-15548.991,-7596.218,-5280.197,0
14401.928,-15093.664,-13607.876,-9176.576,-13018.192,-924.155,-15549.975,-7599.034,-5285.718,0
14401.928,-15091.004,-13602.959,-9175.369,-13011.420,-925.541,-15547.516,-7606.276,-5289.138,0
14401.928,-15090.378,-13600.522,-9176.330,-13010.973,-926.234,-15548.454,-7608.355,-5294.391,0
14401.928,-15089.931,-13602.579,-9177.090,-13015.711,-923.820,-15550.689,-7599.772,-5291.306,0
14401.987,-15089.261,-13603.540,-9177.000,-13018.685,-923.216,-15553.528,-7595.950,-5290.881,0
14401.987,-15088.769,-13600.165,-9176.956,-13017.098,-924.222,-15552.769,-7596.844,-5290.412,0
14401.987,-15086.757,-13596.566,-9173.200,-13010.973,-925.318,-15548.343,-7596.240,-5288.400,0
14401.987,-15084.991,-13594.219,-9171.189,-13010.481,-926.077,-15546.421,-7595.995,-5285.048,0
14401.988,-15083.874,-13591.291,-9171.792,-13015.443,-924.893,-15546.867,-7590.071,-5282.253,0
14401.988,-15083.203,-13590.308,-9172.731,-13019.489,-924.558,-15547.918,-7587.613,-5277.671,0
14401.988,-15083.516,-13592.699,-9171.882,-13018.886,-922.814,-15543.313,-7583.589,-5264.261,0
14401.988,-15083.136,-13591.313,-9168.932,-13013.275,-923.529,-15539.670,-7584.640,-5266.742,0
14401.988,-15085.997,-13593.750,-9169.982,-13012.001,-924.647,-15542.420,-7590.697,-5278.745,0
14401.988,-15090.400,-13599.517,-9171.748,-13016.047,-923.440,-15547.292,-7591.345,-5281.069,0
14401.988,-15093.262,-13600.612,-9173.401,-13021.277,-921.473,-15549.416,-7581.086,-5271.033,0
14401.988,-15095.072,-13600.947,-9175.324,-13022.439,-921.317,-15546.801,-7577.890,-5263.143,0
14401.988,-15093.552,-13598.086,-9173.514,-13015.912,-921.607,-15542.979,-7582.740,-5269.021,0
14401.988,-15092.256,-13596.566,-9172.709,-13014.214,-922.121,-15543.560,-7590.250,-5275.257,0
14401.988,-15092.591,-13599.941,-9175.815,-13019.869,-921.339,-15547.292,-7592.374,-5274.877,0
14402.047,-15095.161,-13607.250,-9179.348,-13025.814,-922.412,-15551.383,-7591.457,-5272.374,0
14402.047,-15095.005,-13608.435,-9178.699,-13023.132,-923.015,-15551.539,-7592.977,-5282.477,0
14402.048,-15096.056,-13602.623,-9176.598,-13015.801,-924.066,-15549.862,-7599.750,-5296.000,0
14402.048,-15099.162,-13600.433,-9179.280,-13015.733,-923.842,-15548.008,-7607.193,-5287.641,0
14402.048,-15099.676,-13602.623,-9182.275,-13020.428,-922.635,-15549.818,-7606.544,-5276.062,0
14402.048,-15101.330,-13607.206,-9184.488,-13025.770,-924.178,-15554.914,-7601.851,-5276.442,0
14402.048,-15101.264,-13607.854,-9182.610,-13024.004,-925.496,-15555.473,-7598.453,-5282.522,0
14402.048,-15098.089,-13602.959,-9177.201,-13015.331,-925.787,-15550.824,-7603.997,-5288.646,0
14402.048,-15098.715,-13605.708,-9178.587,-13014.325,-928.112,-15553.037,-7610.255,-5291.351,0
14402.048,-15095.273,-13603.585,-9178.141,-13017.119,-928.179,-15556.926,-7609.227,-5290.926,0
14402.048,-15095.072,-13605.060,-9179.124,-13021.277,-929.095,-15560.637,-7603.326,-5286.254,0
14402.048,-15093.373,-13606.065,-9176.353,-13018.550,-928.514,-15560.122,-7598.565,-5284.422,0
14402.048,-15089.126,-13600.478,-9171.748,-13011.196,-929.497,-15557.306,-7603.259,-5288.758,0
14402.049,-15085.751,-13594.376,-9170.362,-13008.514,-929.877,-15556.121,-7603.549,-5291.306,0
14402.049,-15083.271,-13594.197,-9171.233,-13011.487,-929.408,-15558.245,-7601.627,-5292.245,0
14402.108,-15081.996,-13594.152,-9171.077,-13014.795,-927.083,-15559.206,-7594.832,-5287.283,0
14402.108,-15085.885,-13598.041,-9172.978,-13016.494,-927.955,-15558.223,-7591.681,-5283.595,0
14402.108,-15085.304,-13597.326,-9171.189,-13010.414,-927.262,-15552.880,-7594.586,-5285.092,0
14402.108,-15084.857,-13597.997,-9171.837,-13009.318,-927.083,-15554.780,-7603.281,-5296.827,0
14402.108,-15087.494,-13599.517,-9176.509,-13014.438,-926.323,-15557.082,-7609.919,-5291.373,0
14402.108,-15088.925,-13602.221,-9178.609,-13018.685,-925.630,-15557.194,-7603.952,-5283.930,0
14402.108,-15090.713,-13604.076,-9179.526,-13019.422,-927.217,-15557.440,-7597.805,-5287.976,0
14402.108,-15090.735,-13601.036,-9176.799,-13014.684,-927.575,-15553.998,-7596.688,-5290.748,0
14402.108,-15089.282,-13597.661,-9175.749,-13011.487,-925.139,-15551.494,-7599.414,-5292.916,0
14402.108,-15090.780,-13598.220,-9179.638,-13016.583,-924.513,-15552.769,-7599.347,-5286.098,0
14402.109,-15090.937,-13600.188,-9182.230,-13021.321,-925.943,-15555.674,-7601.515,-5282.879,0
14402.109,-15089.752,-13598.601,-9180.219,-13018.729,-926.837,-15553.461,-7598.587,-5283.081,0
14402.109,-15089.395,-13595.225,-9178.163,-13011.979,-928.626,-15549.684,-7604.041,-5289.674,0
14402.109,-15088.120,-13589.347,-9179.190,-13010.704,-927.329,-15548.008,-7608.802,-5288.423,0
14402.109,-15090.579,-13596.723,-9182.074,-13018.818,-927.866,-15552.992,-7606.656,-5286.143,0
14402.167,-15095.251,-13606.893,-9185.137,-13026.127,-927.799,-15558.625,-7600.375,-5285.785,0
14402.167,-15095.720,-13605.507,-9183.885,-13025.747,-927.352,-15556.345,-7596.084,-5276.509,0
14402.167,-15092.322,-13598.287,-9178.609,-13016.248,-927.799,-15549.729,-7597.715,-5271.950,0
14402.167,-15096.122,-13601.036,-9179.615,-13015.019,-928.134,-15550.131,-7600.644,-5279.303,0
14402.167,-15097.978,-13604.657,-9183.080,-13020.964,-926.927,-15553.998,-7599.303,-5282.142,0
14402.167,-15096.904,-13606.445,-9183.975,-13025.457,-925.698,-15555.897,-7599.816,-5279.438,0
14402.167,-15094.558,-13606.065,-9181.181,-13024.987,-924.222,-15554.848,-7595.391,-5283.081,0
14402.168,-15093.328,-13603.987,-9177.693,-13019.489,-924.826,-15550.757,-7598.229,-5289.205,0
14402.168,-15093.619,-13604.121,-9177.313,-13017.231,-923.641,-15547.739,-7600.644,-5291.440,0
14402.168,-15094.469,-13607.541,-9178.654,-13020.271,-921.853,-15550.779,-7603.103,-5289.898,0
14402.168,-15095.005,-13611.363,-9179.549,-13024.831,-921.808,-15553.797,-7604.711,-5288.400,0
14402.168,-15094.558,-13609.440,-9180.666,-13024.071,-921.451,-15552.075,-7601.806,-5285.428,0
14402.168,-15094.155,-13602.847,-9179.705,-13017.656,-921.987,-15546.912,-7605.472,-5286.165,0
14402.168,-15096.413,-13601.014,-9181.963,-13017.478,-923.440,-15546.756,-7606.343,-5292.893,0
14402.168,-15098.179,-13605.306,-9183.751,-13022.551,-923.775,-15552.143,-7607.930,-5295.866,0
14402.227,-15097.530,-13608.391,-9184.242,-13027.290,-924.289,-15555.696,-7607.215,-5285.897,0
14402.227,-15095.631,-13606.624,-9183.013,-13025.859,-924.781,-15553.662,-7602.298,-5281.605,0
14402.227,-15093.239,-13603.339,-9177.560,-13017.388,-924.759,-15549.482,-7601.515,-5289.004,0
14402.227,-15093.217,-13604.568,-9177.492,-13016.136,-927.128,-15550.243,-7608.914,-5298.056,0
14402.227,-15094.334,-13605.396,-9180.130,-13021.344,-926.793,-15553.461,-7612.244,-5295.106,0
14402.227,-15094.625,-13605.686,-9182.454,-13026.418,-926.614,-15555.674,-7608.467,-5291.194,0
14402.227,-15093.775,-13603.183,-9182.208,-13025.055,-928.335,-15554.557,-7606.701,-5294.882,0
14402.227,-15091.316,-13599.293,-9179.437,-13017.566,-928.536,-15550.377,-7613.943,-5297.162,0
14402.227,-15091.339,-13600.009,-9179.348,-13015.891,-928.983,-15549.751,-7620.492,-5301.208,0
14402.228,-15092.747,-13601.438,-9181.806,-13020.562,-926.815,-15551.941,-7614.211,-5298.481,0
14402.228,-15092.546,-13604.523,-9182.969,-13025.144,-927.240,-15554.668,-7613.429,-5293.988,0
14402.228,-15091.406,-13603.294,-9179.683,-13023.735,-926.614,-15551.695,-7616.647,-5287.842,0
14402.228,-15092.479,-13602.199,-9177.067,-13018.550,-927.687,-15548.343,-7615.932,-5294.100,0
14402.228,-15093.194,-13605.261,-9175.592,-13016.673,-927.329,-15546.912,-7604.466,-5294.949,0
14402.228,-15092.837,-13603.853,-9178.096,-13020.875,-926.770,-15548.768,-7603.750,-5291.999,0
14402.287,-15091.183,-13598.265,-9178.431,-13025.792,-925.474,-15551.182,-7599.951,-5287.238,0
14402.287,-15088.813,-13593.929,-9175.234,-13025.681,-925.362,-15550.980,-7597.514,-5286.344,0
14402.287,-15083.091,-13586.105,-9169.155,-13017.299,-925.183,-15545.504,-7601.336,-5285.271,0
14402.287,-15080.722,-13584.407,-9168.261,-13014.817,-926.793,-15546.286,-7608.556,-5291.642,0
14402.287,-15081.281,-13585.636,-9168.351,-13018.572,-925.630,-15550.042,-7606.880,-5291.999,0
14402.288,-15083.985,-13591.067,-9168.887,-13023.735,-925.496,-15555.138,-7603.125,-5290.233,0
14402.288,-15084.946,-13599.383,-9166.562,-13022.060,-926.972,-15556.523,-7602.633,-5290.770,0
14402.288,-15083.829,-13598.265,-9163.701,-13015.130,-927.977,-15553.551,-7604.421,-5291.083,0
14402.288,-15084.745,-13596.253,-9163.791,-13013.342,-927.977,-15551.651,-7606.500,-5295.665,0
14402.288,-15087.808,-13600.724,-9166.830,-13019.087,-928.693,-15555.853,-7609.853,-5296.782,0
14402.288,-15091.316,-13608.658,-9168.439,-13025.055,-929.363,-15562.380,-7609.674,-5297.900,0
14402.288,-15093.061,-13613.486,-9168.730,-13024.562,-929.095,-15560.882,-7606.388,-5291.083,0
14402.288,-15092.099,-13611.363,-9165.802,-13017.231,-928.313,-15554.288,-7605.204,-5287.059,0
14402.288,-15092.881,-13608.100,-9165.177,-13015.957,-926.927,-15552.053,-7607.573,-5289.361,0
14402.288,-15093.887,-13607.496,-9168.395,-13021.009,-925.474,-15554.288,-7602.097,-5285.517,0
14402.347,-15097.128,-13609.195,-9172.642,-13026.104,-925.563,-15558.804,-7602.029,-5285.003,0
14402.348,-15098.357,-13611.296,-9171.748,-13024.965,-926.189,-15560.033,-7600.129,-5290.546,0
14402.348,-15096.726,-13605.730,-9167.255,-13018.125,-926.301,-15557.798,-7603.438,-5299.353,0
14402.348,-15095.229,-13605.104,-9167.255,-13016.739,-924.625,-15557.239,-7608.087,-5298.749,0
14402.348,-15094.603,-13602.064,-9169.893,-13020.584,-922.613,-15559.071,-7608.579,-5294.592,0
14402.348,-15100.771,-13605.686,-9176.218,-13025.412,-922.278,-15561.865,-7610.858,-5296.268,0
14402.348,-15106.314,-13610.894,-9180.510,-13025.591,-923.373,-15560.703,-7609.137,-5297.006,0
14402.348,-15102.604,-13604.501,-9177.582,-13018.706,-924.558,-15555.316,-7613.384,-5298.749,0
14402.348,-15104.438,-13604.903,-9178.163,-13018.014,-923.485,-15550.980,-7613.541,-5293.161,0
14402.348,-15111.255,-13612.749,-9184.645,-13025.390,-920.780,-15550.511,-7607.774,-5285.808,0
14402.348,-15119.681,-13625.937,-9187.059,-13032.318,-920.624,-15553.774,-7606.142,-5287.931,0
14402.348,-15118.452,-13627.770,-9184.488,-13031.536,-920.490,-15553.037,-7601.225,-5288.087,0
14402.349,-15112.439,-13616.102,-9181.292,-13024.474,-919.394,-15547.538,-7599.727,-5289.674,0
14402.349,-15110.494,-13613.375,-9181.136,-13022.842,-916.466,-15543.671,-7596.151,-5288.177,0
14402.349,-15111.500,-13616.795,-9181.918,-13028.094,-916.287,-15546.019,-7596.665,-5287.909,0
14402.408,-15111.612,-13614.872,-9183.975,-13034.375,-917.316,-15548.969,-7590.161,-5277.001,0
14402.408,-15107.030,-13611.229,-9180.979,-13031.312,-917.584,-15547.628,-7590.004,-5275.883,0
14402.408,-15103.990,-13604.434,-9179.660,-13024.474,-920.087,-15546.220,-7603.371,-5289.473,0
14402.408,-15105.466,-13602.668,-9182.142,-13023.468,-920.422,-15547.471,-7607.461,-5289.697,0
14402.408,-15106.226,-13605.507,-9184.936,-13027.960,-918.701,-15550.422,-7605.114,-5286.813,0
14402.408,-15106.918,-13610.469,-9186.165,-13032.162,-917.561,-15552.769,-7596.352,-5282.365,0
14402.408,-15107.812,-13611.027,-9186.321,-13031.715,-919.104,-15553.752,-7595.234,-5279.616,0
14402.408,-15103.945,-13605.775,-9183.013,-13023.445,-921.875,-15550.310,-7605.829,-5283.014,0
14402.408,-15101.196,-13600.835,-9181.202,-13018.863,-923.261,-15550.556,-7613.652,-5296.313,0
14402.408,-15102.895,-13607.519,-9184.757,-13023.378,-924.468,-15557.529,-7610.680,-5305.723,0
14402.408,-15104.325,-13618.448,-9187.729,-13029.257,-925.295,-15560.949,-7604.421,-5295.083,0
14402.408,-15104.438,-13626.562,-9186.746,-13028.295,-924.803,-15557.597,-7603.080,-5284.869,0
14402.408,-15100.660,-13608.547,-9182.409,-13019.646,-922.926,-15552.500,-7606.075,-5285.673,0
14402.409,-15100.995,-13601.282,-9181.717,-13019.198,-923.440,-15552.478,-7605.896,-5289.183,0
14402.409,-15100.324,-13599.114,-9182.074,-13023.870,-922.591,-15554.109,-7601.828,-5284.802,0
14402.468,-15098.045,-13597.058,-9182.969,-13027.849,-922.211,-15557.194,-7600.711,-5281.852,0
14402.468,-15098.111,-13604.166,-9182.164,-13027.580,-924.826,-15560.189,-7602.342,-5287.126,0
14402.468,-15097.530,-13606.423,-9179.794,-13021.366,-927.016,-15558.088,-7602.521,-5287.529,0
14402.468,-15098.805,-13604.456,-9179.235,-13019.601,-929.162,-15560.212,-7604.891,-5298.861,0
14402.468,-15101.755,-13606.938,-9179.660,-13023.199,-927.419,-15562.066,-7599.146,-5291.217,0
14402.468,-15106.561,-13612.123,-9185.024,-13030.173,-926.010,-15562.268,-7598.632,-5277.604,0
14402.468,-15105.667,-13615.096,-9183.639,-13028.430,-923.887,-15560.658,-7596.285,-5280.175,0
14402.468,-15106.203,-13616.325,-9183.371,-13022.774,-923.507,-15555.540,-7600.979,-5283.796,0
14402.468,-15108.684,-13617.666,-9185.517,-13021.680,-921.361,-15552.165,-7598.744,-5281.740,0
14402.469,-15111.232,-13615.387,-9188.557,-13027.826,-920.154,-15555.831,-7600.800,-5279.571,0
14402.469,-15111.344,-13613.599,-9190.411,-13033.884,-920.981,-15558.960,-7600.733,-5280.242,0
14402.469,-15111.522,-13614.090,-9191.283,-13033.503,-922.568,-15557.730,-7599.906,-5280.756,0
14402.469,-15109.354,-13611.341,-9187.953,-13025.747,-922.993,-15553.372,-7603.728,-5289.205,0
14402.469,-15108.952,-13609.776,-9187.282,-13024.160,-922.099,-15552.232,-7603.371,-5297.542,0
14402.469,-15112.663,-13615.431,-9188.824,-13029.100,-918.567,-15552.434,-7597.671,-5281.628,0
14402.528,-15115.636,-13618.493,-9191.216,-13036.744,-917.718,-15551.718,-7594.318,-5261.198,0
14402.529,-15109.287,-13611.318,-9187.707,-13034.397,-917.003,-15549.460,-7592.172,-5264.618,0
14402.529,-15103.565,-13603.004,-9182.990,-13027.021,-917.405,-15545.236,-7591.256,-5272.352,0
14402.529,-15100.928,-13599.874,-9180.957,-13024.339,-916.086,-15543.426,-7587.367,-5270.563,0
14402.529,-15099.855,-13597.014,-9182.343,-13028.720,-916.444,-15544.610,-7585.087,-5264.976,0
14402.529,-15100.995,-13598.601,-9184.086,-13033.615,-917.718,-15547.561,-7582.360,-5262.562,0
14402.529,-15101.666,-13604.591,-9184.734,-13033.012,-921.182,-15549.438,-7586.562,-5267.636,0
14402.529,-15098.916,-13603.518,-9183.817,-13024.675,-923.731,-15548.119,-7596.710,-5279.169,0
14402.529,-15100.078,-13598.332,-9186.075,-13022.372,-925.966,-15550.712,-7603.997,-5288.445,0
14402.529,-15100.816,-13599.271,-9189.629,-13026.730,-926.234,-15555.831,-7606.321,-5290.188,0
14402.529,-15098.983,-13601.081,-9192.960,-13031.894,-926.726,-15560.167,-7604.779,-5290.144,0
14402.529,-15097.485,-13601.171,-9192.088,-13031.671,-927.039,-15559.541,-7603.594,-5289.518,0
14402.529,-15098.246,-13598.063,-9188.892,-13024.630,-927.553,-15555.965,-7607.104,-5290.613,0
14402.529,-15100.258,-13597.907,-9189.339,-13023.557,-928.290,-15555.987,-7610.255,-5292.960,0
14402.530,-15103.655,-13600.925,-9191.462,-13028.475,-926.525,-15557.082,-7607.998,-5289.920,0
14402.588,-15109.422,-13611.564,-9194.748,-13034.911,-926.279,-15561.664,-7608.042,-5289.674,0
14402.588,-15112.864,-13619.901,-9193.675,-13033.593,-926.234,-15560.771,-7608.556,-5290.568,0
14402.588,-15112.797,-13619.208,-9190.680,-13025.345,-925.653,-15554.557,-7608.757,-5288.557,0
14402.588,-15111.701,-13616.213,-9191.172,-13023.959,-926.189,-15553.059,-7607.506,-5290.412,0
14402.589,-15111.075,-13613.129,-9190.612,-13029.033,-923.395,-15554.848,-7602.745,-5286.277,0
14402.589,-15113.646,-13613.934,-9193.094,-13035.471,-923.485,-15558.647,-7599.347,-5283.438,0
14402.589,-15116.686,-13617.890,-9193.340,-13034.777,-924.178,-15557.909,-7597.403,-5282.075,0
14402.589,-15118.005,-13618.046,-9191.730,-13029.368,-923.909,-15553.506,-7598.297,-5284.377,0
14402.589,-15119.278,-13618.493,-9191.641,-13029.033,-924.669,-15552.545,-7598.855,-5285.741,0
14402.589,-15119.659,-13619.633,-9192.513,-13031.805,-921.339,-15551.740,-7592.664,-5276.487,0
14402.590,-15121.938,-13622.137,-9194.100,-13036.856,-922.144,-15556.613,-7590.339,-5274.051,0
14402.590,-15120.017,-13617.175,-9190.747,-13034.822,-923.105,-15557.149,-7587.769,-5270.430,0
14402.590,-15114.942,-13611.608,-9185.539,-13026.485,-924.267,-15551.606,-7589.646,-5272.240,0
14402.590,-15112.819,-13609.619,-9184.779,-13023.959,-922.926,-15548.700,-7590.474,-5276.509,0
14402.590,-15114.854,-13613.956,-9188.489,-13031.045,-922.412,-15553.752,-7589.222,-5276.599,0
14402.648,-15114.562,-13614.805,-9189.093,-13036.633,-923.060,-15557.798,-7587.881,-5276.889,0
14402.648,-15111.478,-13611.273,-9185.248,-13035.313,-922.188,-15555.451,-7582.293,-5270.675,0
14402.648,-15113.378,-13611.027,-9185.315,-13029.838,-921.473,-15546.912,-7587.545,-5261.511,0
14402.648,-15117.915,-13613.196,-9190.144,-13029.212,-920.668,-15545.325,-7595.592,-5267.166,0
14402.648,-15116.619,-13613.084,-9191.618,-13033.794,-919.886,-15548.634,-7593.983,-5269.156,0
14402.649,-15115.837,-13616.571,-9191.529,-13038.935,-920.020,-15554.713,-7591.256,-5274.028,0
14402.649,-15115.523,-13618.181,-9191.306,-13038.063,-921.674,-15555.853,-7594.653,-5280.130,0
14402.649,-15110.360,-13611.363,-9185.874,-13028.988,-921.898,-15550.712,-7596.441,-5279.438,0
14402.649,-15110.494,-13611.475,-9187.171,-13028.206,-923.105,-15551.941,-7599.906,-5280.622,0
14402.649,-15110.360,-13613.934,-9190.076,-13033.012,-921.697,-15555.809,-7596.844,-5281.404,0
14402.650,-15111.612,-13617.532,-9192.133,-13038.130,-919.841,-15558.133,-7588.999,-5279.795,0
14402.650,-15109.332,-13613.151,-9189.450,-13036.945,-919.193,-15555.473,-7586.093,-5272.061,0
14402.650,-15109.131,-13609.978,-9188.489,-13030.955,-920.847,-15550.802,-7591.792,-5270.966,0
14402.650,-15109.578,-13609.955,-9189.025,-13028.027,-920.490,-15549.975,-7597.850,-5274.051,0
14402.650,-15111.880,-13615.118,-9192.669,-13033.615,-920.937,-15555.853,-7599.638,-5277.381,0
14402.708,-15113.043,-13618.158,-9192.780,-13038.979,-921.987,-15561.888,-7593.894,-5279.594,0
14402.708,-15110.428,-13616.705,-9191.193,-13036.253,-924.111,-15562.357,-7595.815,-5282.522,0
14402.708,-15107.275,-13610.916,-9188.512,-13027.714,-925.541,-15557.194,-7603.706,-5287.372,0
14402.708,-15106.650,-13609.418,-9186.679,-13025.837,-925.563,-15553.260,-7604.622,-5284.064,0
14402.708,-15107.410,-13610.647,-9185.985,-13030.844,-924.781,-15555.294,-7597.403,-5278.856,0
14402.708,-15108.461,-13613.017,-9185.159,-13035.738,-923.485,-15557.597,-7590.339,-5273.447,0
14402.708,-15107.499,-13610.111,-9184.712,-13036.230,-924.513,-15557.574,-7590.429,-5275.257,0
14402.708,-15106.784,-13606.222,-9183.996,-13030.150,-926.614,-15554.423,-7595.503,-5281.382,0
14402.708,-15107.365,-13606.088,-9186.276,-13027.692,-927.754,-15553.395,-7599.638,-5287.104,0
14402.708,-15108.371,-13610.290,-9187.350,-13032.274,-926.770,-15557.082,-7598.229,-5285.540,0
14402.708,-15108.975,-13614.716,-9186.388,-13036.074,-924.803,-15558.535,-7596.375,-5279.393,0
14402.709,-15108.796,-13617.130,-9184.689,-13034.911,-923.485,-15556.054,-7592.530,-5280.465,0
14402.709,-15106.516,-13611.072,-9183.639,-13027.558,-924.178,-15551.069,-7594.542,-5282.142,0
14402.709,-15105.443,-13607.317,-9183.930,-13026.127,-925.340,-15549.885,-7602.208,-5286.791,0
14402.709,-15106.784,-13609.553,-9185.941,-13031.335,-924.222,-15551.428,-7599.079,-5281.069,0
14402.768,-15108.438,-13611.386,-9187.841,-13037.146,-922.591,-15552.836,-7592.485,-5274.319,0
14402.768,-15107.946,-13610.737,-9186.970,-13036.186,-923.239,-15554.668,-7596.956,-5285.875,0
14402.769,-15106.784,-13607.317,-9185.985,-13029.413,-924.178,-15552.210,-7604.175,-5294.033,0
14402.769,-15106.181,-13607.272,-9188.154,-13028.452,-926.077,-15554.199,-7609.093,-5298.458,0
14402.769,-15104.259,-13610.826,-9191.306,-13032.028,-925.295,-15556.814,-7606.835,-5290.255,0
14402.769,-15104.772,-13613.688,-9194.658,-13037.370,-925.161,-15559.206,-7604.443,-5282.410,0
14402.769,-15105.354,-13609.888,-9190.903,-13036.029,-926.077,-15558.736,-7601.314,-5284.288,0
14402.770,-15102.135,-13602.869,-9186.098,-13027.379,-927.664,-15554.758,-7604.711,-5290.166,0
14402.770,-15102.157,-13599.584,-9186.656,-13026.083,-928.357,-15556.456,-7609.115,-5299.018,0
14402.770,-15103.498,-13600.276,-9189.048,-13032.006,-927.396,-15559.430,-7605.494,-5300.493,0
14402.770,-15106.807,-13604.881,-9192.334,-13038.354,-926.748,-15559.921,-7601.896,-5289.518,0
14402.770,-15105.107,-13601.841,-9189.741,-13036.163,-927.061,-15558.781,-7600.420,-5281.874,0
14402.771,-15101.308,-13594.666,-9183.326,-13027.044,-927.687,-15554.624,-7599.325,-5288.423,0
14402.771,-15100.078,-13590.106,-9183.438,-13026.172,-928.469,-15553.193,-7601.113,-5294.838,0
14402.771,-15098.156,-13589.950,-9185.182,-13031.492,-929.229,-15555.741,-7595.570,-5286.165,0
14402.828,-15099.185,-13597.482,-9187.350,-13036.074,-928.581,-15556.792,-7590.116,-5266.898,0
14402.829,-15099.989,-13601.327,-9186.522,-13034.330,-928.447,-15554.825,-7589.110,-5270.206,0
14402.829,-15099.296,-13597.550,-9183.236,-13027.714,-928.357,-15549.125,-7590.697,-5274.274,0
14402.829,-15101.330,-13596.812,-9183.795,-13027.089,-927.262,-15547.852,-7591.301,-5275.325,0
14402.829,-15102.046,-13600.612,-9186.455,-13032.207,-926.145,-15551.896,-7591.971,-5275.794,0
14402.829,-15102.761,-13603.651,-9188.444,-13037.191,-926.234,-15556.926,-7590.250,-5277.314,0
14402.830,-15101.531,-13601.059,-9187.931,-13036.118,-927.083,-15557.529,-7593.402,-5280.756,0
14402.830,-15099.117,-13600.098,-9183.817,-13029.145,-927.642,-15553.618,-7598.833,-5287.529,0
14402.830,-15101.889,-13603.205,-9183.706,-13028.273,-926.212,-15552.970,-7598.811,-5287.730,0
14402.830,-15106.069,-13608.771,-9187.081,-13034.710,-926.525,-15557.954,-7598.341,-5286.813,0
14402.830,-15107.924,-13613.911,-9187.438,-13040.142,-927.307,-15562.134,-7594.944,-5285.495,0
14402.831,-15106.694,-13612.480,-9184.913,-13038.287,-928.424,-15561.284,-7594.363,-5283.930,0
14402.831,-15106.069,-13609.105,-9184.310,-13031.782,-930.056,-15559.608,-7600.510,-5289.406,0
14402.831,-15106.672,-13607.295,-9187.350,-13029.637,-930.369,-15560.637,-7607.327,-5300.627,0
14402.831,-15107.521,-13610.021,-9188.623,-13034.106,-928.648,-15565.241,-7602.342,-5300.001,0
14402.889,-15107.275,-13613.129,-9188.198,-13039.427,-927.240,-15567.588,-7599.459,-5292.692,0
14402.889,-15108.617,-13613.397,-9184.220,-13039.091,-926.547,-15563.632,-7598.386,-5287.171,0
14402.889,-15106.024,-13607.295,-9179.794,-13031.715,-925.966,-15556.770,-7597.045,-5288.445,0
14402.889,-15103.163,-13604.188,-9179.169,-13029.972,-926.390,-15554.668,-7597.335,-5291.239,0
14402.890,-15103.521,-13605.618,-9181.963,-13034.420,-924.088,-15555.786,-7592.977,-5284.936,0
14402.890,-15104.728,-13606.222,-9184.511,-13039.583,-923.507,-15557.574,-7592.329,-5282.835,0
14402.890,-15103.565,-13604.456,-9182.610,-13037.929,-924.043,-15555.205,-7591.681,-5282.544,0
14402.890,-15101.531,-13599.650,-9181.471,-13031.090,-924.133,-15548.924,-7592.888,-5281.404,0
14402.890,-15102.761,-13597.482,-9183.930,-13029.502,-923.708,-15548.142,-7594.363,-5282.835,0
14402.891,-15106.337,-13601.640,-9188.288,-13034.845,-921.697,-15551.695,-7593.201,-5282.544,0
14402.891,-15108.796,-13605.216,-9190.747,-13039.874,-921.160,-15554.780,-7593.223,-5282.433,0
14402.891,-15108.930,-13604.591,-9189.518,-13038.711,-922.926,-15556.277,-7597.895,-5288.780,0
14402.891,-15107.365,-13603.719,-9186.500,-13030.754,-923.619,-15552.053,-7601.761,-5288.937,0
14402.891,-15108.572,-13604.612,-9187.818,-13031.090,-924.848,-15553.081,-7603.594,-5288.445,0
14402.892,-15113.937,-13608.346,-9192.759,-13039.694,-925.876,-15558.200,-7604.108,-5290.278,0
14402.949,-15117.915,-13613.151,-9195.865,-13046.021,-924.781,-15559.586,-7595.995,-5283.460,0
14402.949,-15119.145,-13612.928,-9193.295,-13044.545,-924.178,-15556.345,-7590.652,-5272.575,0
14402.949,-15118.832,-13608.904,-9189.651,-13037.862,-925.116,-15551.718,-7593.715,-5272.620,0
14402.949,-15118.452,-13607.429,-9189.249,-13035.917,-925.385,-15548.856,-7593.133,-5273.604,0
14402.949,-15119.278,-13610.201,-9191.909,-13040.656,-926.122,-15552.276,-7587.099,-5272.888,0
14402.949,-15119.257,-13611.631,-9192.915,-13044.500,-927.083,-15555.115,-7580.281,-5269.178,0
14402.950,-15117.558,-13612.279,-9191.618,-13041.595,-927.866,-15554.378,-7580.058,-5271.637,0
14402.950,-15116.373,-13607.742,-9188.735,-13034.688,-930.123,-15552.254,-7586.003,-5280.085,0
14402.950,-15115.233,-13605.864,-9188.557,-13032.542,-930.861,-15552.276,-7591.368,-5285.606,0
14402.950,-15119.502,-13614.381,-9192.870,-13038.331,-930.369,-15556.501,-7592.016,-5279.459,0
14402.950,-15123.995,-13619.678,-9196.804,-13045.193,-930.525,-15560.189,-7589.110,-5277.962,0
14402.950,-15123.235,-13620.170,-9196.089,-13043.941,-929.676,-15558.044,-7587.680,-5276.487,0
14402.950,-15119.189,-13615.588,-9193.652,-13036.812,-928.000,-15551.718,-7590.250,-5275.325,0
14402.950,-15117.424,-13612.794,-9195.374,-13035.851,-928.670,-15551.763,-7595.056,-5279.393,0
14402.950,-15118.720,-13614.962,-9196.469,-13039.271,-926.904,-15554.489,-7595.927,-5279.862,0
14403.008,-15121.916,-13620.394,-9199.665,-13044.836,-928.782,-15560.972,-7595.369,-5282.343,0
14403.009,-15120.396,-13617.510,-9197.877,-13042.131,-929.833,-15560.547,-7596.777,-5286.612,0
14403.009,-15117.200,-13613.353,-9193.854,-13033.324,-929.184,-15556.076,-7601.448,-5292.468,0
14403.009,-15119.994,-13617.778,-9196.804,-13033.570,-929.318,-15557.283,-7606.098,-5296.067,0
14403.009,-15122.341,-13622.449,-9199.576,-13040.478,-930.034,-15562.312,-7607.796,-5297.788,0
14403.009,-15122.743,-13622.584,-9200.671,-13047.026,-930.481,-15566.046,-7602.767,-5291.552,0
14403.010,-15117.535,-13615.565,-9197.586,-13043.271,-929.408,-15563.766,-7601.985,-5292.356,0
14403.010,-15117.044,-13614.582,-9196.559,-13036.543,-931.867,-15562.514,-7608.467,-5305.209,0
14403.010,-15118.810,-13613.330,-9198.391,-13035.582,-932.381,-15561.821,-7611.082,-5302.750,0
14403.010,-15120.620,-13613.934,-9200.447,-13040.700,-929.676,-15561.821,-7608.042,-5287.685,0
14403.010,-15123.503,-13617.845,-9202.169,-13046.713,-928.693,-15564.437,-7602.387,-5283.460,0
14403.011,-15123.459,-13617.487,-9200.626,-13045.864,-929.184,-15563.095,-7602.186,-5285.986,0
14403.011,-15121.312,-13615.096,-9196.066,-13037.639,-929.475,-15558.133,-7600.822,-5288.557,0
14403.011,-15119.033,-13615.141,-9195.798,-13035.090,-931.151,-15558.849,-7603.862,-5294.458,0
14403.011,-15118.742,-13614.984,-9197.206,-13040.231,-930.682,-15562.022,-7607.685,-5293.049,0
14403.068,-15117.870,-13611.608,-9199.017,-13046.713,-930.548,-15565.442,-7604.242,-5293.184,0
14403.068,-15114.115,-13611.631,-9195.128,-13044.009,-930.414,-15563.318,-7597.380,-5296.291,0
14403.069,-15112.037,-13608.859,-9191.462,-13036.275,-930.861,-15558.625,-7601.203,-5293.161,0
14403.069,-15110.941,-13605.753,-9192.691,-13034.777,-931.084,-15557.619,-7605.337,-5294.033,0
14403.069,-15112.774,-13608.814,-9195.664,-13041.036,-929.944,-15562.000,-7605.405,-5294.123,0
14403.069,-15115.457,-13613.464,-9198.369,-13046.870,-929.073,-15565.934,-7601.381,-5291.574,0
14403.069,-15116.082,-13615.833,-9197.341,-13045.350,-930.816,-15565.934,-7601.314,-5294.547,0
14403.069,-15116.038,-13614.492,-9193.675,-13037.639,-931.509,-15561.396,-7605.896,-5300.292,0
14403.070,-15115.367,-13614.492,-9194.100,-13036.029,-931.107,-15559.988,-7609.674,-5301.007,0
14403.070,-15113.311,-13615.163,-9195.619,-13041.282,-932.045,-15565.241,-7616.916,-5309.836,0
14403.070,-15113.333,-13616.504,-9195.664,-13045.797,-931.040,-15567.498,-7615.284,-5305.187,0
14403.070,-15114.250,-13615.319,-9196.089,-13044.746,-931.911,-15564.794,-7607.372,-5292.669,0
14403.070,-15114.384,-13611.899,-9193.943,-13038.309,-932.492,-15558.267,-7604.823,-5285.338,0
14403.071,-15110.740,-13606.759,-9193.921,-13036.900,-932.917,-15559.362,-7605.785,-5293.542,0
14403.071,-15108.326,-13602.422,-9196.223,-13042.020,-931.822,-15563.072,-7607.595,-5295.486,0
14403.128,-15108.796,-13607.765,-9195.642,-13045.864,-930.727,-15566.180,-7605.673,-5298.257,0
14403.128,-15117.535,-13620.751,-9197.497,-13046.624,-931.978,-15566.895,-7605.918,-5300.694,0
14403.129,-15119.748,-13622.293,-9196.938,-13041.282,-932.537,-15562.559,-7609.875,-5300.448,0
14403.129,-15118.385,-13618.717,-9193.987,-13038.600,-930.525,-15560.033,-7612.267,-5305.120,0
14403.129,-15121.357,-13620.371,-9195.888,-13044.947,-929.989,-15563.989,-7610.009,-5301.252,0
14403.129,-15124.375,-13628.283,-9198.614,-13050.312,-929.967,-15567.699,-7607.438,-5297.967,0
14403.129,-15126.387,-13629.021,-9197.676,-13049.887,-931.218,-15568.750,-7605.717,-5297.721,0
14403.129,-15126.073,-13625.646,-9195.374,-13043.227,-931.867,-15565.554,-7608.221,-5300.314,0
14403.129,-15122.363,-13622.539,-9194.703,-13040.008,-931.218,-15564.548,-7612.333,-5303.778,0
14403.129,-15120.665,-13623.120,-9194.748,-13042.623,-929.631,-15566.962,-7609.964,-5301.588,0
14403.129,-15118.094,-13625.623,-9194.032,-13046.512,-929.833,-15570.158,-7605.002,-5300.917,0
14403.129,-15117.312,-13624.327,-9193.585,-13045.350,-932.358,-15569.354,-7604.801,-5301.476,0
14403.130,-15115.345,-13621.846,-9192.580,-13038.801,-935.868,-15565.911,-7613.831,-5305.052,0
14403.130,-15115.523,-13615.945,-9194.100,-13037.705,-936.516,-15566.225,-7616.446,-5304.337,0
14403.130,-15117.647,-13617.957,-9198.234,-13044.054,-936.672,-15573.153,-7617.653,-5310.193,0
14403.189,-15118.407,-13620.460,-9201.028,-13048.546,-934.124,-15571.946,-7610.836,-5299.644,0
14403.189,-15118.496,-13622.718,-9198.168,-13048.144,-933.364,-15568.481,-7607.193,-5292.714,0
14403.189,-15115.099,-13619.343,-9190.389,-13041.215,-933.409,-15564.213,-7606.567,-5294.100,0
14403.189,-15113.154,-13619.745,-9189.204,-13039.874,-933.275,-15562.961,-7611.439,-5296.402,0
14403.190,-15113.780,-13619.678,-9191.261,-13044.344,-932.425,-15566.202,-7608.668,-5297.632,0
14403.190,-15114.049,-13620.013,-9192.400,-13049.328,-932.314,-15570.493,-7600.822,-5292.267,0
14403.190,-15113.109,-13623.769,-9190.099,-13047.250,-933.901,-15569.600,-7604.779,-5291.239,0
14403.190,-15113.892,-13620.236,-9187.886,-13040.119,-935.689,-15565.845,-7608.400,-5295.776,0
14403.190,-15113.489,-13618.985,-9188.981,-13038.398,-935.197,-15565.822,-7609.406,-5298.771,0
14403.191,-15114.294,-13618.604,-9192.088,-13043.048,-933.655,-15569.644,-7606.902,-5299.196,0
14403.191,-15114.316,-13617.107,-9194.145,-13048.412,-934.012,-15571.052,-7606.656,-5295.307,0
14403.191,-15115.010,-13618.247,-9193.272,-13048.523,-934.839,-15570.181,-7603.706,-5294.234,0
14403.191,-15114.160,-13613.755,-9191.462,-13041.461,-933.588,-15564.570,-7602.812,-5293.631,0
14403.191,-15116.932,-13613.866,-9193.541,-13041.147,-934.482,-15564.101,-7605.024,-5295.598,0
14403.191,-15119.771,-13617.286,-9196.514,-13047.518,-934.169,-15566.917,-7603.236,-5293.876,0
14403.249,-15119.391,-13621.891,-9197.475,-13052.614,-932.917,-15569.487,-7601.314,-5293.273,0
14403.249,-15118.295,-13625.422,-9195.978,-13051.541,-934.236,-15569.130,-7604.198,-5294.815,0
14403.249,-15117.558,-13623.143,-9193.474,-13044.165,-934.236,-15564.101,-7606.679,-5294.637,0
14403.249,-15118.430,-13621.220,-9195.440,-13044.813,-935.286,-15565.241,-7611.082,-5304.382,0
14403.250,-15120.754,-13623.075,-9198.548,-13050.110,-933.364,-15569.487,-7609.428,-5298.705,0
14403.250,-15121.402,-13624.640,-9199.353,-13053.508,-932.694,-15572.595,-7608.221,-5292.804,0
14403.250,-15118.765,-13621.242,-9197.787,-13049.642,-931.889,-15570.181,-7605.449,-5287.730,0
14403.250,-15114.942,-13617.062,-9193.809,-13040.566,-931.643,-15565.800,-7606.455,-5288.579,0
14403.250,-15115.859,-13617.778,-9193.026,-13039.359,-933.118,-15566.671,-7606.231,-5292.848,0
14403.251,-15117.468,-13618.046,-9196.021,-13045.842,-933.431,-15570.694,-7606.634,-5293.027,0
14403.251,-15118.742,-13619.298,-9197.542,-13051.317,-932.872,-15573.511,-7601.985,-5290.636,0
14403.251,-15117.736,-13619.074,-9195.731,-13049.932,-934.571,-15572.460,-7601.247,-5293.139,0
14403.251,-15113.489,-13611.698,-9192.803,-13042.198,-936.918,-15567.812,-7607.104,-5297.408,0
14403.252,-15112.037,-13608.412,-9193.987,-13041.505,-937.432,-15566.560,-7611.238,-5299.464,0
14403.252,-15114.518,-13611.788,-9196.760,-13046.468,-936.069,-15567.409,-7609.137,-5296.335,0
14403.308,-15117.938,-13617.219,-9197.988,-13051.072,-936.136,-15570.068,-7607.640,-5294.480,0
14403.309,-15116.753,-13616.213,-9197.899,-13049.418,-935.845,-15568.594,-7608.467,-5295.575,0
14403.309,-15118.184,-13616.057,-9197.162,-13044.299,-937.544,-15565.889,-7614.658,-5300.895,0
14403.309,-15119.479,-13614.738,-9197.095,-13043.025,-936.516,-15564.437,-7617.005,-5301.364,0
14403.309,-15121.312,-13616.504,-9199.866,-13048.256,-934.392,-15567.834,-7615.619,-5301.700,0
14403.309,-15123.369,-13621.578,-9202.079,-13053.731,-933.722,-15570.829,-7616.268,-5296.849,0
14403.309,-15120.978,-13615.588,-9199.195,-13051.385,-932.627,-15568.124,-7611.484,-5292.759,0
14403.309,-15118.563,-13606.915,-9195.664,-13044.009,-930.749,-15562.447,-7604.399,-5296.402,0
14403.309,-15120.978,-13608.122,-9198.436,-13044.635,-929.989,-15561.731,-7607.729,-5297.676,0
14403.310,-15124.353,-13613.710,-9202.102,-13051.317,-928.134,-15562.983,-7603.214,-5292.401,0
14403.310,-15124.554,-13621.645,-9202.660,-13056.414,-928.670,-15566.828,-7598.073,-5288.266,0
14403.310,-15123.279,-13623.143,-9199.531,-13054.111,-930.414,-15567.610,-7602.119,-5288.355,0
14403.310,-15123.213,-13623.746,-9198.369,-13046.669,-931.554,-15566.291,-7613.071,-5299.331,0
14403.310,-15129.694,-13629.021,-9203.420,-13047.630,-933.722,-15570.873,-7620.112,-5305.142,0
14403.310,-15131.036,-13628.730,-9205.029,-13051.877,-931.643,-15573.176,-7617.765,-5300.984,0
14403.369,-15130.768,-13628.998,-9206.214,-13056.480,-931.375,-15576.729,-7612.937,-5301.141,0
14403.369,-15127.817,-13627.456,-9203.062,-13053.485,-931.263,-15576.238,-7615.396,-5306.036,0
14403.369,-15125.090,-13623.344,-9199.844,-13047.004,-932.917,-15572.818,-7622.370,-5310.148,0
14403.370,-15121.916,-13618.583,-9199.486,-13045.618,-933.722,-15572.640,-7624.896,-5308.673,0
14403.370,-15122.117,-13620.394,-9202.906,-13051.116,-935.286,-15578.406,-7622.437,-5312.607,0
14403.370,-15121.827,-13621.667,-9203.576,-13055.140,-935.890,-15581.781,-7616.044,-5307.891,0
14403.370,-15119.547,-13618.806,-9201.744,-13053.396,-935.555,-15578.540,-7612.781,-5299.576,0
14403.370,-15118.340,-13614.269,-9199.710,-13046.154,-935.331,-15572.729,-7615.329,-5303.041,0
14403.371,-15121.335,-13616.169,-9201.744,-13045.596,-936.471,-15574.673,-7624.046,-5307.757,0
14403.371,-15125.939,-13622.293,-9205.275,-13050.871,-934.951,-15578.294,-7625.812,-5307.511,0
14403.371,-15128.801,-13625.981,-9205.990,-13057.151,-933.118,-15580.238,-7611.529,-5304.784,0
14403.371,-15124.196,-13620.482,-9201.096,-13055.632,-932.537,-15577.557,-7611.238,-5307.444,0
14403.371,-15122.698,-13614.269,-9196.982,-13049.328,-933.230,-15570.873,-7615.329,-5305.209,0
14403.371,-15122.296,-13613.844,-9198.011,-13049.507,-933.007,-15567.342,-7614.770,-5300.336,0
14403.372,-15122.899,-13615.654,-9199.106,-13054.894,-931.956,-15568.840,-7609.964,-5296.917,0
14403.429,-15123.213,-13617.197,-9199.240,-13058.515,-929.944,-15568.705,-7603.348,-5287.104,0
14403.429,-15123.324,-13615.431,-9198.503,-13057.576,-932.560,-15569.688,-7604.980,-5292.133,0
14403.430,-15120.530,-13610.559,-9196.401,-13050.446,-935.108,-15567.342,-7608.712,-5298.682,0
14403.430,-15117.781,-13607.966,-9195.597,-13047.585,-934.817,-15566.180,-7612.423,-5299.934,0
14403.430,-15121.380,-13612.257,-9199.218,-13053.128,-936.158,-15571.209,-7610.300,-5294.771,0
14403.430,-15125.225,-13619.633,-9202.258,-13057.442,-935.689,-15572.661,-7599.973,-5284.109,0
14403.430,-15125.470,-13624.729,-9201.118,-13054.916,-935.175,-15569.912,-7599.973,-5281.784,0
14403.431,-15123.950,-13619.544,-9198.458,-13048.568,-935.376,-15564.682,-7603.862,-5286.456,0
14403.431,-15122.698,-13612.659,-9197.653,-13048.501,-934.929,-15563.452,-7610.344,-5284.489,0
14403.431,-15122.899,-13616.191,-9199.084,-13055.341,-934.281,-15566.738,-7609.160,-5278.521,0
14403.431,-15123.861,-13620.572,-9199.844,-13060.303,-932.939,-15570.136,-7599.034,-5279.303,0
14403.431,-15121.938,-13620.281,-9197.430,-13057.688,-931.777,-15569.197,-7594.765,-5282.253,0
14403.431,-15119.257,-13617.354,-9195.061,-13050.915,-933.074,-15566.112,-7602.410,-5285.696,0
14403.432,-15118.094,-13612.637,-9198.570,-13051.050,-935.219,-15567.855,-7610.166,-5293.027,0
14403.432,-15118.586,-13610.179,-9202.392,-13056.280,-935.041,-15572.952,-7608.579,-5293.250,0
14403.489,-15118.921,-13610.961,-9203.040,-13059.678,-934.459,-15576.819,-7605.494,-5291.887,0
14403.489,-15117.781,-13609.978,-9200.939,-13056.682,-934.661,-15575.836,-7606.276,-5292.178,0
14403.489,-15115.926,-13609.396,-9197.944,-13049.083,-935.130,-15572.617,-7609.919,-5298.302,0
14403.490,-15116.239,-13611.251,-9198.391,-13047.652,-935.733,-15574.159,-7617.296,-5303.957,0
14403.490,-15118.787,-13618.225,-9201.476,-13054.224,-936.247,-15578.965,-7620.358,-5302.661,0
14403.490,-15118.765,-13620.304,-9202.169,-13058.716,-935.108,-15580.820,-7607.014,-5299.397,0
14403.490,-15118.631,-13621.689,-9199.688,-13056.235,-933.789,-15577.780,-7606.478,-5296.782,0
14403.490,-15120.307,-13625.064,-9197.988,-13049.283,-933.610,-15572.796,-7610.858,-5298.950,0
14403.490,-15125.269,-13633.111,-9202.437,-13049.820,-933.163,-15572.058,-7612.870,-5300.671,0
14403.490,-15128.867,-13628.798,-9205.186,-13054.536,-932.358,-15575.299,-7609.786,-5299.867,0
14403.490,-15126.588,-13622.650,-9204.604,-13060.013,-934.415,-15578.651,-7610.970,-5295.754,0
14403.490,-15122.318,-13623.143,-9198.570,-13057.845,-935.800,-15575.902,-7610.188,-5293.117,0
14403.491,-15126.677,-13635.033,-9196.223,-13052.234,-935.219,-15572.281,-7609.249,-5300.269,0
14403.491,-15130.879,-13638.207,-9197.407,-13051.832,-933.766,-15573.443,-7608.266,-5302.303,0
14403.491,-15131.036,-13634.318,-9198.302,-13054.805,-932.738,-15576.104,-7611.596,-5301.744,0
14403.491,-15133.227,-13636.710,-9201.431,-13060.370,-935.599,-15579.657,-7615.440,-5302.594,0
14403.551,-15136.780,-13645.874,-9202.012,-13059.297,-936.426,-15576.193,-7616.178,-5293.497,0
14403.551,-15134.590,-13640.912,-9197.318,-13050.535,-936.873,-15570.851,-7614.748,-5298.235,0
14403.551,-15134.366,-13641.001,-9195.709,-13049.775,-937.365,-15570.829,-7607.506,-5295.262,0
14403.551,-15132.980,-13640.397,-9196.514,-13054.156,-935.689,-15572.841,-7603.728,-5289.630,0
14403.551,-15134.746,-13641.538,-9198.749,-13058.693,-935.130,-15577.199,-7603.103,-5291.440,0
14403.552,-15135.931,-13647.729,-9197.095,-13056.503,-936.337,-15578.093,-7603.706,-5296.112,0
14403.552,-15134.679,-13650.590,-9193.786,-13049.708,-937.544,-15573.511,-7607.416,-5300.962,0
14403.552,-15133.405,-13655.999,-9194.100,-13050.647,-937.097,-15572.147,-7610.993,-5296.693,0
14403.552,-15134.947,-13656.290,-9196.335,-13056.682,-936.270,-15577.713,-7609.875,-5296.268,0
14403.552,-15138.322,-13648.623,-9198.994,-13061.398,-935.666,-15582.161,-7606.500,-5295.150,0
14403.552,-15138.166,-13648.355,-9197.520,-13060.146,-936.628,-15583.212,-7597.447,-5292.714,0
14403.553,-15133.249,-13647.841,-9194.703,-13051.921,-937.075,-15580.127,-7607.394,-5300.001,0
14403.553,-15133.830,-13647.551,-9197.721,-13051.653,-938.349,-15580.619,-7615.485,-5306.103,0
14403.553,-15132.779,-13643.304,-9198.123,-13056.928,-937.499,-15583.793,-7609.003,-5302.772,0
14403.553,-15130.656,-13640.890,-9197.273,-13061.846,-936.158,-15584.284,-7601.873,-5291.194,0
14403.610,-15125.537,-13635.525,-9196.268,-13059.990,-938.930,-15581.982,-7603.080,-5292.088,0
14403.610,-15119.659,-13629.513,-9191.082,-13050.670,-940.517,-15575.188,-7607.394,-5294.234,0
14403.611,-15119.033,-13626.606,-9192.178,-13049.574,-941.277,-15573.891,-7611.194,-5297.922,0
14403.611,-15121.604,-13631.681,-9196.357,-13055.318,-940.316,-15575.769,-7607.327,-5296.469,0
14403.611,-15121.782,-13636.218,-9199.195,-13060.705,-940.494,-15576.729,-7606.478,-5290.524,0
14403.611,-15121.156,-13638.186,-9198.212,-13058.783,-940.472,-15575.120,-7609.919,-5289.853,0
14403.611,-15125.046,-13641.023,-9196.804,-13053.062,-941.813,-15573.443,-7611.350,-5297.274,0
14403.612,-15129.270,-13643.930,-9196.982,-13052.771,-941.433,-15575.389,-7612.289,-5299.912,0
14403.612,-15130.097,-13647.171,-9198.123,-13057.196,-942.662,-15581.558,-7613.988,-5298.548,0
14403.612,-15129.963,-13652.445,-9200.000,-13062.605,-945.233,-15588.263,-7615.708,-5301.878,0
14403.612,-15124.889,-13647.104,-9196.290,-13058.627,-946.239,-15584.843,-7620.514,-5298.749,0
14403.612,-15120.709,-13633.760,-9192.490,-13051.072,-947.200,-15578.831,-7625.275,-5299.442,0
14403.613,-15122.028,-13632.352,-9192.356,-13051.161,-946.306,-15578.160,-7614.055,-5300.739,0
14403.613,-15122.743,-13634.251,-9194.636,-13055.476,-942.774,-15579.233,-7601.046,-5295.039,0
14403.613,-15123.525,-13638.476,-9197.766,-13060.504,-942.551,-15583.413,-7602.432,-5293.430,0
14403.670,-15125.984,-13642.589,-9195.709,-13059.208,-941.992,-15582.832,-7605.650,-5294.078,0
14403.670,-15127.683,-13640.733,-9193.071,-13052.436,-941.657,-15578.339,-7607.237,-5298.682,0
14403.670,-15131.550,-13643.191,-9195.440,-13052.413,-939.913,-15577.914,-7606.992,-5302.504,0
14403.670,-15136.333,-13650.345,-9200.022,-13058.471,-937.119,-15581.088,-7604.399,-5300.180,0
14403.671,-15138.144,-13652.646,-9202.235,-13062.047,-936.046,-15583.994,-7603.974,-5302.146,0
14403.671,-15139.663,-13657.542,-9202.481,-13060.481,-937.589,-15585.000,-7605.159,-5302.549,0
14403.671,-15140.580,-13658.056,-9200.626,-13054.134,-937.566,-15578.965,-7607.104,-5296.447,0
14403.671,-15143.173,-13657.608,-9201.968,-13054.581,-937.477,-15578.138,-7611.015,-5301.387,0
14403.671,-15145.386,-13660.560,-9205.588,-13060.929,-937.633,-15580.954,-7611.618,-5300.269,0
14403.671,-15142.323,-13657.296,-9205.924,-13064.617,-937.879,-15582.742,-7611.730,-5301.119,0
14403.672,-15138.881,-13649.428,-9203.756,-13062.181,-939.399,-15580.373,-7611.574,-5297.185,0
14403.672,-15135.282,-13644.578,-9200.581,-13055.296,-940.606,-15575.724,-7612.557,-5295.933,0
14403.672,-15135.260,-13642.700,-9201.185,-13055.453,-941.880,-15576.506,-7617.050,-5302.057,0
14403.672,-15136.803,-13644.041,-9203.018,-13060.705,-941.768,-15580.663,-7614.323,-5301.834,0
14403.672,-15137.809,-13647.886,-9203.241,-13063.745,-940.271,-15584.017,-7608.333,-5302.080,0
14403.730,-15138.032,-13647.729,-9202.839,-13061.890,-940.584,-15583.278,-7608.601,-5302.840,0
14403.731,-15135.483,-13644.488,-9198.548,-13054.872,-940.763,-15579.255,-7614.479,-5305.790,0
14403.731,-15133.271,-13644.153,-9198.212,-13053.866,-939.801,-15577.087,-7612.893,-5304.539,0
14403.731,-15135.417,-13645.829,-9200.782,-13060.438,-938.393,-15577.914,-7611.529,-5300.940,0
14403.731,-15138.948,-13650.232,-9202.190,-13067.522,-939.712,-15582.005,-7611.350,-5301.476,0
14403.731,-15139.663,-13654.613,-9198.950,-13066.428,-940.047,-15580.708,-7608.958,-5299.979,0
14403.731,-15136.690,-13649.025,-9194.211,-13058.761,-939.690,-15576.015,-7609.674,-5300.314,0
14403.732,-15135.260,-13646.433,-9193.474,-13056.928,-938.751,-15574.271,-7609.987,-5300.135,0
14403.732,-15135.171,-13640.510,-9195.150,-13061.286,-937.276,-15575.679,-7603.505,-5295.419,0
14403.732,-15135.506,-13639.615,-9196.760,-13065.891,-936.024,-15577.512,-7596.889,-5289.429,0
14403.732,-15131.684,-13640.354,-9194.636,-13062.181,-935.018,-15572.997,-7595.101,-5286.188,0
14403.733,-15126.387,-13636.263,-9192.199,-13053.575,-937.343,-15570.158,-7605.181,-5296.693,0
14403.733,-15126.007,-13632.284,-9193.630,-13053.352,-939.578,-15573.042,-7611.909,-5302.482,0
14403.733,-15128.264,-13632.888,-9195.016,-13059.096,-940.919,-15580.149,-7611.373,-5299.107,0
14403.733,-15128.867,-13633.782,-9196.647,-13062.694,-941.657,-15584.955,-7608.981,-5300.247,0
14403.790,-15127.191,-13634.229,-9197.542,-13061.309,-942.730,-15583.346,-7613.116,-5301.767,0
14403.791,-15123.235,-13633.715,-9194.993,-13054.447,-942.506,-15576.863,-7620.358,-5294.815,0
14403.791,-15123.057,-13627.948,-9195.888,-13053.062,-943.512,-15577.400,-7617.095,-5301.521,0
14403.791,-15124.106,-13626.495,-9198.347,-13058.381,-943.109,-15584.262,-7608.556,-5309.165,0
14403.791,-15124.777,-13634.944,-9198.391,-13062.516,-940.472,-15584.776,-7600.912,-5297.989,0
14403.791,-15123.839,-13637.671,-9197.184,-13060.616,-940.830,-15581.043,-7606.120,-5290.479,0
14403.792,-15121.312,-13636.889,-9194.636,-13053.598,-941.925,-15577.021,-7610.813,-5294.704,0
14403.792,-15124.554,-13637.381,-9194.636,-13054.269,-943.467,-15578.518,-7614.994,-5299.644,0
14403.792,-15128.242,-13635.279,-9195.843,-13059.990,-941.858,-15583.391,-7612.244,-5298.012,0
14403.792,-15129.873,-13639.772,-9198.123,-13064.505,-940.874,-15586.609,-7608.020,-5296.626,0
14403.792,-15127.884,-13639.615,-9195.329,-13060.102,-939.824,-15584.352,-7609.853,-5297.162,0
14403.793,-15128.823,-13636.396,-9193.183,-13054.335,-942.081,-15582.139,-7612.758,-5302.974,0
14403.793,-15129.985,-13638.521,-9193.541,-13055.229,-941.679,-15581.580,-7611.126,-5302.750,0
14403.793,-15131.729,-13643.259,-9195.776,-13061.711,-940.539,-15584.284,-7609.696,-5300.694,0
14403.793,-15134.434,-13647.931,-9197.922,-13065.913,-939.667,-15586.072,-7606.120,-5296.313,0
14403.850,-15135.282,-13646.947,-9198.503,-13062.739,-939.712,-15583.949,-7607.104,-5297.453,0
14403.851,-15136.624,-13645.539,-9198.503,-13056.369,-940.494,-15581.267,-7614.189,-5304.091,0
14403.851,-15137.965,-13648.802,-9199.956,-13057.509,-940.472,-15582.608,-7618.413,-5308.182,0
14403.851,-15139.730,-13654.145,-9201.408,-13062.203,-938.416,-15586.117,-7617.519,-5306.550,0
14403.851,-15143.352,-13658.860,-9203.354,-13066.137,-937.343,-15588.979,-7615.530,-5304.292,0
14403.851,-15143.195,-13659.285,-9201.968,-13062.158,-937.969,-15588.018,-7616.849,-5305.187,0
14403.851,-15142.436,-13657.542,-9200.693,-13054.827,-939.243,-15584.799,-7623.174,-5310.573,0
14403.851,-15142.167,-13655.754,-9202.437,-13054.201,-938.751,-15584.150,-7623.264,-5313.837,0
14403.851,-15144.000,-13658.973,-9207.712,-13061.979,-939.869,-15588.039,-7621.654,-5310.730,0
14403.851,-15143.105,-13654.055,-9207.376,-13066.674,-939.623,-15590.297,-7618.078,-5304.091,0
14403.852,-15140.826,-13652.580,-9202.638,-13064.371,-940.360,-15587.883,-7612.602,-5305.455,0
14403.852,-15138.211,-13649.741,-9198.838,-13057.420,-941.612,-15583.122,-7615.440,-5309.836,0
14403.852,-15140.065,-13647.997,-9201.587,-13056.704,-939.377,-15578.853,-7619.598,-5297.520,0
14403.852,-15142.815,-13648.802,-9206.080,-13064.147,-939.377,-15581.691,-7615.776,-5292.223,0
14403.852,-15143.508,-13647.327,-9207.891,-13068.417,-938.080,-15584.105,-7606.142,-5290.904,0
14403.911,-15144.715,-13649.271,-9207.891,-13067.321,-940.338,-15584.687,-7607.617,-5296.022,0
14403.911,-15143.039,-13646.679,-9205.253,-13059.945,-941.813,-15581.267,-7613.585,-5301.521,0
14403.911,-15142.256,-13646.120,-9204.717,-13059.208,-941.835,-15580.619,-7615.843,-5300.515,0
14403.912,-15139.730,-13640.331,-9202.258,-13063.812,-939.801,-15581.424,-7610.255,-5296.492,0
14403.912,-15138.501,-13638.767,-9201.833,-13069.132,-939.578,-15583.278,-7605.114,-5288.333,0
14403.912,-15141.385,-13646.008,-9202.235,-13067.120,-939.109,-15582.608,-7608.243,-5289.250,0
14403.912,-15139.529,-13644.443,-9200.917,-13060.370,-940.964,-15580.462,-7615.776,-5296.291,0
14403.912,-15136.087,-13638.609,-9199.106,-13058.247,-939.801,-15580.104,-7615.083,-5296.894,0
14403.912,-15137.473,-13641.896,-9201.855,-13064.349,-939.131,-15585.894,-7604.980,-5298.481,0
14403.913,-15136.892,-13644.242,-9203.018,-13068.752,-939.891,-15590.252,-7599.615,-5300.962,0
14403.913,-15132.020,-13638.453,-9202.929,-13065.176,-940.271,-15588.151,-7605.941,-5298.906,0
14403.913,-15128.801,-13633.938,-9202.750,-13057.979,-941.970,-15584.687,-7615.396,-5300.225,0
14403.913,-15124.777,-13630.809,-9202.012,-13055.564,-943.042,-15584.620,-7624.604,-5309.590,0
14403.913,-15126.744,-13636.777,-9204.247,-13060.705,-943.557,-15589.648,-7620.939,-5309.232,0
14403.914,-15130.991,-13643.661,-9207.041,-13066.315,-944.607,-15593.292,-7611.462,-5298.213,0
14403.971,-15129.628,-13645.383,-9202.974,-13062.359,-943.422,-15590.945,-7609.741,-5300.493,0
14403.972,-15131.952,-13645.092,-9200.738,-13055.185,-942.640,-15586.072,-7608.556,-5298.012,0
14403.972,-15131.773,-13641.359,-9202.526,-13055.609,-943.668,-15586.363,-7613.518,-5299.129,0
14403.972,-15132.757,-13642.768,-9206.170,-13060.280,-943.288,-15591.034,-7619.889,-5304.404,0
14403.972,-15133.494,-13646.634,-9208.628,-13065.243,-944.160,-15595.617,-7622.996,-5306.058,0
14403.972,-15129.136,-13644.556,-9206.371,-13062.784,-944.629,-15592.778,-7623.778,-5304.896,0
14403.973,-15128.645,-13644.287,-9203.935,-13057.129,-945.926,-15589.761,-7627.645,-5311.021,0
14403.973,-15129.739,-13642.432,-9204.538,-13055.878,-945.658,-15587.816,-7627.935,-5313.770,0
14403.973,-15130.611,-13640.845,-9206.907,-13062.158,-945.568,-15589.447,-7625.610,-5305.745,0
14403.973,-15129.784,-13642.521,-9208.092,-13066.070,-945.501,-15594.410,-7623.778,-5306.595,0
14403.973,-15127.661,-13643.103,-9204.828,-13062.807,-945.367,-15593.493,-7621.096,-5305.790,0
14403.974,-15129.873,-13641.202,-9203.107,-13057.174,-946.082,-15588.889,-7620.693,-5299.018,0
14403.974,-15133.964,-13643.527,-9203.599,-13057.666,-946.127,-15588.018,-7623.532,-5301.096,0
14403.974,-15138.613,-13649.897,-9208.650,-13065.287,-946.619,-15591.884,-7624.247,-5298.839,0
14403.974,-15139.082,-13652.580,-9209.165,-13069.222,-946.842,-15594.678,-7622.168,-5301.096,0
14404.031,-15135.305,-13647.886,-9206.550,-13063.634,-945.523,-15591.929,-7621.163,-5298.883,0
14404.031,-15134.791,-13644.443,-9206.885,-13058.962,-947.870,-15591.280,-7627.130,-5308.003,0
14404.031,-15134.746,-13641.023,-9208.718,-13058.515,-948.206,-15593.158,-7630.416,-5316.563,0
14404.031,-15138.568,-13646.880,-9213.076,-13064.281,-947.982,-15597.808,-7625.230,-5312.607,0
14404.031,-15141.496,-13649.562,-9216.272,-13069.423,-947.870,-15602.277,-7620.648,-5305.455,0
14404.031,-15141.094,-13648.623,-9213.992,-13065.802,-947.625,-15601.965,-7617.296,-5305.723,0
14404.032,-15139.954,-13650.523,-9211.713,-13058.895,-948.586,-15599.260,-7619.754,-5311.758,0
14404.032,-15137.854,-13647.305,-9211.802,-13057.129,-947.781,-15598.053,-7628.605,-5319.536,0
14404.032,-15136.758,-13644.354,-9211.959,-13060.705,-947.133,-15601.607,-7629.611,-5329.662,0
14404.032,-15136.288,-13645.896,-9212.629,-13065.198,-946.507,-15603.127,-7625.342,-5321.168,0
14404.033,-15134.299,-13643.572,-9209.165,-13062.493,-945.278,-15597.718,-7624.292,-5311.042,0
14404.033,-15133.964,-13640.085,-9208.539,-13057.308,-946.686,-15593.784,-7629.656,-5312.317,0
14404.033,-15134.635,-13638.565,-9210.416,-13057.644,-947.334,-15594.231,-7634.216,-5318.195,0
14404.034,-15136.557,-13642.187,-9212.025,-13062.538,-945.948,-15594.745,-7628.114,-5316.340,0
14404.034,-15136.892,-13643.214,-9213.166,-13067.522,-947.267,-15597.941,-7624.873,-5313.501,0
14404.090,-15134.232,-13640.309,-9211.154,-13063.477,-947.200,-15595.729,-7623.867,-5313.188,0
14404.090,-15133.830,-13641.225,-9209.276,-13057.822,-948.049,-15591.437,-7624.716,-5312.384,0
14404.091,-15132.063,-13639.437,-9208.740,-13057.062,-947.021,-15590.073,-7625.275,-5314.194,0
14404.091,-15134.009,-13641.985,-9211.221,-13063.119,-945.121,-15591.437,-7622.258,-5312.496,0
14404.091,-15135.461,-13643.840,-9211.534,-13067.769,-942.953,-15592.175,-7617.743,-5308.293,0
14404.091,-15134.210,-13643.817,-9209.120,-13065.287,-942.998,-15590.387,-7619.821,-5306.282,0
14404.091,-15134.679,-13644.354,-9208.985,-13060.214,-946.015,-15588.599,-7628.717,-5311.467,0
14404.091,-15134.188,-13644.712,-9209.790,-13059.275,-944.942,-15589.246,-7629.768,-5316.117,0
14404.091,-15136.534,-13650.926,-9213.523,-13065.422,-944.562,-15594.566,-7630.081,-5315.223,0
14404.091,-15138.636,-13652.646,-9214.663,-13069.937,-942.774,-15595.796,-7622.996,-5310.126,0
14404.092,-15138.435,-13649.384,-9213.456,-13067.724,-943.869,-15597.293,-7624.314,-5315.558,0
14404.092,-15135.350,-13644.310,-9210.282,-13059.387,-944.853,-15593.940,-7629.835,-5319.782,0
14404.092,-15134.500,-13644.131,-9208.985,-13057.353,-944.652,-15594.633,-7634.998,-5324.252,0
14404.092,-15138.256,-13650.747,-9211.623,-13063.723,-944.004,-15600.378,-7632.674,-5324.409,0
14404.092,-15137.138,-13653.362,-9212.160,-13069.065,-944.048,-15603.686,-7631.534,-5322.196,0
14404.151,-15132.734,-13648.109,-9208.874,-13066.383,-943.825,-15599.327,-7628.337,-5317.994,0
14404.151,-15131.281,-13644.108,-9205.029,-13058.939,-943.400,-15592.622,-7628.315,-5318.173,0
14404.151,-15131.550,-13643.885,-9204.762,-13058.135,-942.774,-15590.297,-7628.024,-5316.072,0
14404.151,-15134.054,-13647.796,-9207.041,-13063.969,-942.014,-15593.538,-7626.885,-5315.088,0
14404.151,-15136.780,-13652.379,-9208.718,-13068.417,-940.874,-15595.751,-7628.226,-5311.713,0
14404.151,-15137.250,-13654.771,-9207.600,-13066.494,-941.210,-15593.963,-7630.595,-5312.451,0
14404.152,-15136.154,-13652.021,-9204.538,-13060.683,-940.316,-15589.492,-7631.579,-5318.039,0
14404.152,-15138.747,-13651.932,-9206.371,-13062.963,-941.254,-15591.102,-7631.377,-5326.532,0
14404.152,-15142.011,-13653.831,-9209.008,-13068.417,-940.159,-15593.963,-7630.528,-5323.001,0
14404.152,-15146.347,-13656.401,-9213.926,-13074.050,-938.527,-15594.611,-7629.902,-5310.596,0
14404.152,-15144.224,-13654.479,-9214.328,-13072.194,-939.042,-15593.493,-7629.053,-5310.573,0
14404.152,-15141.898,-13651.395,-9212.361,-13064.818,-940.159,-15591.660,-7632.763,-5325.057,0
14404.153,-15145.140,-13654.368,-9213.434,-13065.064,-939.153,-15589.895,-7634.373,-5317.636,0
14404.153,-15147.979,-13658.123,-9216.675,-13070.562,-937.030,-15590.699,-7634.149,-5304.315,0
14404.153,-15145.698,-13656.826,-9217.993,-13073.044,-937.030,-15593.068,-7634.998,-5305.969,0
14404.211,-15141.496,-13655.374,-9216.585,-13070.630,-938.796,-15593.046,-7631.892,-5309.947,0
14404.211,-15136.199,-13646.857,-9212.025,-13062.963,-940.271,-15588.822,-7630.930,-5313.278,0
14404.211,-15135.551,-13642.723,-9212.182,-13062.583,-942.081,-15590.208,-7632.473,-5319.291,0
14404.212,-15136.848,-13645.829,-9215.400,-13068.797,-944.160,-15596.041,-7632.808,-5313.367,0
14404.212,-15136.646,-13648.690,-9215.780,-13072.328,-945.389,-15602.166,-7628.605,-5309.925,0
14404.212,-15132.958,-13647.350,-9212.875,-13068.081,-947.066,-15603.775,-7629.857,-5320.341,0
14404.212,-15129.583,-13642.074,-9209.008,-13060.438,-948.183,-15601.897,-7629.567,-5325.862,0
14404.212,-15128.979,-13642.745,-9209.388,-13060.169,-948.206,-15600.847,-7635.445,-5322.129,0
14404.213,-15129.650,-13643.304,-9211.534,-13065.958,-947.446,-15603.798,-7635.356,-5319.983,0
14404.213,-15130.097,-13643.415,-9212.070,-13070.294,-945.814,-15606.256,-7632.137,-5318.888,0
14404.213,-15129.940,-13646.209,-9211.534,-13068.819,-946.909,-15604.490,-7633.724,-5319.313,0
14404.213,-15130.231,-13644.734,-9208.628,-13062.896,-946.999,-15597.830,-7631.333,-5317.212,0
14404.213,-15132.802,-13645.695,-9208.784,-13062.963,-945.769,-15596.913,-7627.711,-5317.502,0
14404.213,-15135.350,-13648.288,-9212.204,-13068.886,-946.619,-15600.758,-7627.846,-5314.842,0
14404.214,-15135.327,-13646.656,-9214.015,-13074.229,-946.976,-15603.798,-7630.193,-5313.770,0
14404.271,-15132.310,-13640.196,-9211.042,-13070.093,-947.021,-15600.892,-7632.606,-5317.189,0
14404.271,-15130.901,-13637.827,-9209.724,-13062.940,-947.513,-15595.639,-7638.172,-5317.346,0
14404.271,-15130.723,-13637.291,-9210.818,-13063.187,-946.976,-15593.649,-7639.200,-5319.089,0
14404.272,-15129.918,-13638.274,-9212.495,-13067.769,-946.552,-15596.556,-7638.687,-5317.100,0
14404.272,-15127.750,-13638.878,-9212.696,-13072.686,-948.988,-15601.942,-7638.172,-5318.463,0
14404.272,-15123.078,-13634.653,-9211.489,-13070.115,-951.938,-15602.568,-7640.854,-5318.642,0
14404.272,-15125.851,-13635.950,-9212.696,-13063.835,-952.721,-15598.656,-7646.912,-5321.615,0
14404.272,-15131.304,-13640.935,-9216.987,-13064.416,-950.486,-15597.830,-7647.784,-5325.504,0
14404.272,-15134.857,-13641.538,-9223.380,-13070.585,-948.541,-15600.423,-7645.794,-5323.001,0
14404.272,-15132.265,-13640.286,-9222.934,-13073.558,-946.038,-15601.495,-7642.911,-5318.665,0
14404.272,-15133.069,-13642.812,-9220.922,-13071.903,-947.245,-15600.222,-7640.921,-5319.894,0
14404.272,-15135.752,-13641.762,-9220.631,-13066.249,-948.094,-15595.773,-7643.537,-5323.873,0
14404.272,-15136.892,-13639.124,-9222.755,-13066.964,-948.072,-15594.834,-7651.986,-5325.884,0
14404.273,-15135.528,-13638.565,-9223.716,-13070.093,-945.032,-15596.041,-7649.058,-5320.363,0
14404.273,-15137.831,-13641.561,-9224.855,-13075.569,-945.613,-15600.937,-7646.688,-5323.202,0
14404.332,-15139.552,-13639.414,-9221.749,-13073.535,-945.054,-15597.472,-7632.942,-5320.877,0
14404.332,-15140.781,-13638.968,-9219.849,-13067.188,-946.909,-15593.493,-7630.438,-5322.822,0
14404.332,-15136.690,-13637.067,-9217.658,-13063.901,-945.747,-15590.833,-7631.444,-5320.229,0
14404.332,-15137.316,-13640.354,-9221.413,-13069.914,-945.971,-15595.751,-7633.500,-5317.659,0
14404.332,-15140.424,-13645.539,-9224.274,-13074.519,-944.942,-15598.970,-7632.853,-5315.960,0
14404.332,-15138.993,-13646.008,-9221.302,-13071.636,-943.378,-15595.773,-7633.769,-5313.211,0
14404.333,-15138.144,-13644.823,-9219.223,-13065.020,-943.467,-15592.040,-7639.469,-5320.207,0
14404.333,-15139.843,-13644.712,-9221.793,-13066.494,-943.311,-15591.571,-7640.251,-5318.843,0
14404.333,-15141.876,-13643.795,-9223.827,-13073.088,-942.730,-15594.432,-7638.463,-5315.558,0
14404.333,-15140.647,-13643.147,-9222.978,-13077.246,-943.221,-15597.293,-7633.054,-5315.558,0
14404.333,-15136.087,-13639.593,-9219.804,-13074.407,-946.038,-15598.321,-7634.618,-5319.380,0
14404.333,-15131.371,-13632.553,-9216.720,-13066.048,-947.513,-15592.890,-7643.358,-5324.476,0
14404.333,-15130.030,-13629.133,-9218.194,-13063.901,-948.340,-15591.214,-7645.638,-5327.784,0
14404.334,-15133.271,-13633.268,-9221.413,-13068.372,-949.077,-15595.975,-7638.664,-5324.409,0
14404.334,-15136.423,-13640.309,-9224.788,-13073.066,-950.039,-15599.148,-7638.061,-5320.766,0
14404.391,-15135.461,-13639.504,-9224.386,-13069.870,-951.536,-15597.852,-7649.684,-5322.018,0
14404.391,-15135.350,-13637.560,-9222.509,-13063.812,-952.140,-15594.521,-7648.320,-5323.381,0
14404.391,-15134.031,-13633.200,-9218.820,-13063.164,-950.150,-15594.477,-7632.428,-5327.896,0
14404.391,-15134.366,-13629.490,-9221.950,-13069.892,-950.530,-15597.740,-7630.528,-5324.342,0
14404.392,-15135.081,-13631.681,-9224.274,-13072.999,-949.033,-15595.684,-7628.516,-5311.110,0
14404.392,-15136.825,-13634.989,-9224.699,-13070.920,-949.524,-15592.756,-7631.511,-5310.484,0
14404.392,-15133.853,-13630.697,-9221.637,-13063.946,-950.441,-15588.174,-7639.401,-5314.284,0
14404.392,-15131.572,-13626.227,-9222.821,-13064.617,-952.654,-15591.146,-7643.537,-5321.973,0
14404.392,-15132.310,-13628.909,-9225.303,-13070.004,-950.128,-15593.247,-7635.959,-5311.713,0
14404.392,-15134.031,-13634.766,-9227.091,-13074.272,-950.620,-15597.919,-7635.043,-5309.702,0
14404.393,-15133.853,-13636.821,-9224.386,-13071.948,-951.424,-15598.746,-7637.122,-5317.055,0
14404.393,-15131.572,-13635.548,-9220.229,-13064.863,-951.357,-15595.014,-7641.972,-5324.454,0
14404.393,-15128.912,-13633.312,-9218.284,-13064.841,-951.022,-15596.153,-7642.553,-5333.439,0
14404.393,-15131.505,-13636.039,-9222.374,-13072.038,-948.340,-15594.611,-7635.065,-5306.773,0
14404.393,-15132.936,-13635.928,-9222.353,-13074.474,-946.418,-15597.315,-7632.003,-5301.968,0
14404.451,-15130.209,-13632.485,-9219.647,-13070.049,-947.200,-15598.746,-7632.070,-5314.619,0
14404.451,-15127.526,-13630.228,-9217.613,-13064.192,-949.234,-15598.366,-7636.920,-5329.058,0
14404.451,-15128.197,-13629.400,-9219.715,-13065.064,-949.100,-15596.511,-7633.299,-5320.028,0
14404.451,-15131.326,-13637.492,-9222.956,-13071.725,-948.317,-15598.210,-7631.579,-5306.885,0
14404.452,-15131.482,-13639.012,-9224.945,-13075.569,-949.524,-15603.217,-7636.943,-5313.367,0
14404.452,-15131.706,-13635.548,-9226.711,-13073.558,-951.648,-15603.016,-7640.810,-5317.368,0
14404.452,-15128.711,-13629.178,-9220.854,-13065.422,-952.251,-15598.009,-7646.912,-5322.084,0
14404.452,-15128.688,-13629.558,-9218.977,-13066.315,-951.000,-15597.428,-7638.776,-5321.146,0
14404.452,-15130.320,-13630.205,-9221.391,-13072.843,-948.005,-15599.417,-7625.991,-5313.323,0
14404.452,-15130.433,-13631.859,-9220.698,-13075.703,-946.596,-15600.333,-7618.279,-5312.317,0
14404.452,-15131.349,-13630.809,-9218.396,-13072.775,-947.043,-15596.242,-7621.319,-5311.311,0
14404.452,-15132.444,-13632.239,-9216.630,-13066.293,-946.686,-15589.828,-7625.879,-5306.617,0
14404.452,-15134.679,-13636.956,-9218.508,-13067.567,-946.462,-15589.872,-7630.483,-5308.606,0
14404.452,-15135.774,-13640.175,-9220.206,-13072.597,-945.859,-15594.410,-7633.098,-5313.703,0
14404.452,-15135.305,-13643.125,-9220.899,-13075.994,-946.172,-15598.411,-7632.428,-5311.355,0
14404.511,-15132.958,-13642.409,-9216.921,-13072.149,-946.909,-15597.315,-7631.467,-5311.110,0
14404.511,-15131.505,-13634.386,-9214.819,-13066.986,-950.553,-15595.170,-7636.607,-5318.330,0
14404.511,-15129.650,-13630.026,-9215.043,-13066.405,-950.128,-15594.187,-7638.888,-5323.113,0
14404.511,-15130.320,-13630.854,-9217.971,-13072.038,-949.189,-15597.695,-7635.646,-5323.426,0
14404.512,-15129.226,-13632.083,-9218.933,-13074.810,-949.524,-15599.260,-7636.272,-5321.168,0
14404.512,-15128.354,-13634.386,-9218.910,-13072.306,-950.217,-15597.182,-7630.237,-5314.217,0
14404.512,-15126.767,-13631.972,-9217.726,-13064.841,-949.323,-15591.571,-7630.953,-5305.656,0
14404.512,-15127.817,-13630.026,-9219.156,-13063.790,-950.016,-15592.600,-7638.351,-5314.462,0
14404.512,-15132.287,-13632.485,-9224.543,-13070.831,-953.592,-15600.489,-7646.800,-5328.857,0
14404.512,-15136.579,-13636.844,-9229.058,-13076.128,-953.615,-15601.093,-7644.990,-5311.937,0
14404.513,-15135.238,-13633.871,-9225.929,-13072.708,-953.056,-15597.137,-7641.860,-5310.640,0
14404.513,-15135.327,-13630.026,-9223.358,-13066.629,-952.855,-15591.772,-7639.625,-5316.810,0
14404.513,-15135.081,-13628.618,-9223.470,-13066.249,-950.866,-15590.699,-7638.038,-5318.463,0
14404.513,-15135.327,-13631.748,-9225.771,-13072.104,-951.737,-15595.975,-7639.938,-5320.766,0
14404.514,-15136.981,-13636.620,-9226.555,-13077.134,-949.994,-15597.852,-7634.887,-5310.708,0
14404.571,-15134.880,-13636.620,-9223.895,-13074.071,-951.223,-15597.227,-7632.786,-5312.518,0
14404.572,-15130.499,-13632.731,-9219.401,-13065.131,-952.900,-15594.388,-7639.066,-5328.253,0
14404.572,-15130.991,-13632.038,-9222.665,-13065.198,-953.034,-15593.292,-7650.823,-5330.020,0
14404.572,-15135.171,-13638.073,-9225.481,-13071.322,-950.419,-15595.907,-7645.190,-5316.943,0
14404.572,-15137.093,-13640.733,-9226.621,-13076.441,-951.089,-15604.691,-7640.542,-5328.701,0
14404.573,-15130.589,-13632.262,-9220.854,-13071.099,-953.660,-15611.084,-7640.475,-5362.966,0
14404.573,-15131.706,-13631.814,-9221.838,-13066.227,-953.660,-15601.942,-7642.754,-5338.669,0
14404.573,-15136.311,-13637.067,-9227.426,-13069.199,-950.486,-15593.226,-7636.406,-5302.214,0
14404.573,-15136.892,-13636.688,-9227.627,-13073.356,-947.982,-15594.723,-7629.231,-5297.095,0
14404.573,-15138.277,-13638.990,-9228.186,-13077.000,-945.948,-15596.846,-7627.913,-5295.106,0
14404.573,-15134.769,-13634.140,-9226.442,-13073.200,-949.413,-15601.987,-7642.151,-5320.833,0
14404.574,-15132.131,-13626.987,-9224.028,-13064.863,-950.888,-15599.148,-7643.604,-5330.131,0
14404.574,-15136.534,-13628.552,-9228.343,-13066.249,-949.591,-15594.164,-7639.156,-5315.736,0
14404.574,-15141.116,-13633.983,-9231.092,-13072.999,-948.049,-15596.332,-7631.757,-5307.914,0
14404.574,-15140.603,-13634.206,-9231.271,-13076.419,-947.468,-15599.483,-7628.203,-5314.798,0
14404.631,-15140.870,-13635.369,-9231.271,-13074.362,-947.692,-15595.796,-7628.069,-5305.276,0
14404.632,-15143.396,-13637.336,-9229.706,-13068.707,-948.385,-15591.594,-7629.254,-5307.399,0
14404.632,-15145.229,-13638.543,-9230.577,-13068.998,-946.306,-15588.979,-7633.479,-5310.260,0
14404.632,-15145.632,-13641.739,-9231.248,-13074.251,-945.680,-15593.226,-7638.753,-5317.078,0
14404.632,-15149.834,-13649.339,-9232.321,-13080.174,-946.954,-15597.852,-7629.366,-5307.891,0
14404.632,-15152.181,-13652.178,-9230.511,-13078.095,-946.596,-15596.020,-7623.375,-5305.321,0
14404.632,-15153.521,-13652.938,-9227.001,-13070.831,-946.060,-15592.085,-7631.131,-5312.205,0
14404.632,-15158.282,-13658.279,-9228.946,-13072.529,-946.574,-15594.768,-7630.304,-5309.545,0
14404.632,-15162.730,-13661.453,-9234.109,-13078.386,-947.557,-15600.199,-7633.098,-5311.691,0
14404.632,-15166.865,-13665.924,-9236.345,-13080.710,-947.133,-15603.619,-7639.178,-5318.955,0
14404.632,-15170.979,-13669.880,-9235.316,-13079.012,-948.586,-15603.462,-7642.777,-5323.560,0
14404.632,-15169.995,-13666.907,-9230.600,-13071.121,-947.826,-15597.360,-7647.403,-5324.096,0
14404.632,-15174.622,-13673.523,-9232.388,-13073.245,-946.619,-15596.063,-7644.386,-5317.324,0
14404.633,-15182.512,-13683.827,-9235.339,-13080.486,-942.104,-15594.812,-7617.631,-5291.686,0
14404.633,-15186.691,-13684.989,-9237.774,-13084.733,-942.439,-15597.695,-7611.708,-5286.612,0
14404.692,-15184.322,-13678.194,-9234.937,-13081.090,-944.160,-15597.763,-7619.397,-5295.933,0
14404.692,-15178.466,-13671.377,-9229.035,-13073.759,-944.719,-15593.493,-7631.377,-5307.824,0
14404.692,-15177.259,-13672.316,-9229.415,-13074.810,-944.227,-15594.477,-7630.416,-5316.608,0
14404.692,-15177.729,-13677.792,-9233.192,-13080.800,-943.646,-15597.092,-7626.415,-5313.188,0
14404.693,-15179.896,-13683.000,-9232.812,-13085.918,-942.439,-15594.768,-7619.531,-5291.619,0
14404.693,-15177.058,-13674.797,-9230.354,-13083.772,-944.428,-15592.040,-7616.782,-5290.144,0
14404.693,-15170.330,-13662.861,-9224.252,-13075.257,-946.708,-15590.588,-7620.492,-5307.757,0
14404.693,-15166.709,-13660.983,-9224.654,-13075.479,-947.356,-15590.990,-7627.645,-5311.199,0
14404.693,-15169.458,-13661.431,-9231.114,-13082.900,-946.641,-15592.354,-7626.080,-5294.391,0
14404.694,-15168.743,-13658.189,-9231.583,-13086.589,-946.574,-15596.846,-7625.991,-5295.285,0
14404.694,-15166.978,-13660.515,-9227.023,-13082.722,-949.301,-15601.651,-7629.075,-5311.915,0
14404.694,-15165.547,-13661.297,-9224.833,-13074.340,-951.603,-15600.109,-7633.769,-5320.140,0
14404.694,-15164.966,-13661.141,-9228.364,-13072.708,-951.156,-15596.645,-7636.988,-5304.270,0
14404.694,-15167.357,-13667.846,-9233.818,-13079.839,-953.436,-15605.765,-7640.206,-5309.098,0
14404.695,-15165.927,-13670.640,-9234.109,-13083.236,-954.911,-15613.744,-7641.190,-5324.655,0
14404.752,-15166.083,-13668.583,-9234.042,-13081.492,-954.509,-15610.168,-7640.542,-5316.273,0
14404.752,-15162.686,-13660.761,-9230.197,-13074.139,-954.084,-15603.686,-7644.341,-5320.922,0
14404.752,-15163.781,-13659.509,-9230.936,-13074.631,-951.827,-15600.266,-7641.927,-5313.479,0
14404.753,-15165.234,-13662.057,-9235.763,-13081.157,-950.933,-15601.719,-7638.105,-5306.014,0
14404.753,-15164.765,-13664.873,-9237.462,-13085.650,-951.268,-15604.312,-7635.333,-5313.032,0
14404.753,-15162.954,-13666.907,-9234.422,-13082.521,-951.603,-15602.501,-7639.290,-5322.241,0
14404.753,-15163.490,-13658.592,-9233.595,-13076.508,-951.715,-15595.482,-7643.335,-5312.026,0
14404.753,-15162.462,-13653.943,-9233.640,-13075.659,-951.447,-15597.695,-7640.162,-5318.553,0
14404.754,-15162.239,-13655.530,-9235.048,-13080.911,-950.709,-15602.232,-7637.144,-5315.066,0
14404.754,-15161.099,-13657.162,-9234.980,-13085.091,-950.799,-15604.223,-7638.217,-5309.076,0
14404.754,-15158.483,-13655.105,-9232.589,-13081.046,-952.698,-15604.133,-7647.135,-5317.860,0
14404.754,-15156.517,-13650.747,-9230.712,-13074.631,-952.900,-15598.679,-7650.309,-5317.681,0
14404.754,-15156.941,-13649.495,-9232.679,-13076.307,-951.246,-15598.276,-7634.462,-5315.468,0
14404.755,-15158.037,-13653.809,-9235.159,-13081.984,-949.122,-15599.036,-7625.208,-5302.191,0
14404.755,-15156.919,-13656.223,-9234.444,-13085.270,-950.419,-15601.875,-7629.343,-5302.862,0
14404.811,-15155.243,-13655.284,-9233.773,-13083.325,-952.497,-15601.920,-7639.692,-5313.367,0
14404.811,-15152.158,-13646.522,-9232.857,-13076.821,-951.402,-15592.733,-7640.698,-5305.455,0
14404.812,-15154.394,-13646.611,-9233.371,-13077.380,-951.290,-15592.957,-7634.618,-5305.008,0
14404.812,-15156.092,-13649.048,-9235.719,-13083.571,-953.481,-15600.959,-7637.032,-5309.567,0
14404.812,-15154.215,-13649.764,-9235.785,-13086.231,-952.117,-15603.574,-7636.719,-5309.702,0
14404.812,-15149.588,-13648.646,-9231.539,-13081.604,-950.329,-15599.596,-7636.384,-5303.376,0
14404.812,-15146.012,-13640.331,-9228.186,-13074.586,-951.849,-15596.689,-7641.369,-5311.780,0
14404.812,-15146.659,-13640.935,-9230.153,-13074.720,-951.514,-15599.707,-7642.978,-5326.935,0
14404.812,-15150.438,-13644.913,-9236.300,-13081.001,-949.077,-15598.992,-7645.638,-5315.513,0
14404.812,-15153.856,-13648.959,-9240.435,-13086.901,-949.480,-15601.271,-7645.280,-5311.825,0
14404.812,-15153.499,-13646.970,-9237.104,-13083.058,-949.346,-15602.099,-7641.726,-5319.201,0
14404.812,-15151.286,-13641.538,-9235.115,-13076.263,-950.486,-15597.808,-7648.029,-5318.620,0
14404.812,-15150.280,-13639.571,-9239.205,-13075.882,-950.642,-15595.907,-7657.261,-5323.783,0
14404.813,-15153.901,-13646.143,-9243.117,-13081.895,-952.698,-15603.775,-7658.758,-5344.995,0
14404.813,-15155.287,-13651.104,-9243.005,-13085.985,-949.368,-15599.998,-7644.274,-5321.213,0
14404.872,-15156.182,-13653.340,-9243.095,-13084.443,-948.407,-15591.034,-7640.899,-5290.814,0
14404.872,-15152.829,-13646.075,-9238.624,-13077.335,-950.217,-15588.688,-7647.202,-5303.421,0
14404.872,-15152.314,-13643.482,-9240.188,-13077.871,-951.648,-15589.872,-7653.729,-5314.954,0
14404.872,-15152.359,-13647.394,-9243.206,-13083.280,-951.469,-15593.068,-7653.751,-5316.519,0
14404.872,-15152.113,-13651.686,-9241.999,-13086.365,-951.134,-15593.158,-7647.493,-5300.962,0
14404.873,-15151.041,-13648.444,-9237.596,-13083.146,-952.117,-15593.628,-7641.704,-5306.282,0
14404.873,-15147.911,-13641.181,-9233.371,-13075.927,-952.095,-15590.051,-7640.318,-5312.540,0
14404.873,-15148.381,-13637.022,-9234.869,-13076.821,-951.111,-15587.794,-7639.089,-5301.141,0
14404.873,-15151.286,-13644.801,-9237.954,-13083.013,-952.073,-15594.745,-7643.313,-5299.867,0
14404.873,-15152.382,-13650.411,-9239.160,-13086.410,-951.782,-15597.852,-7639.714,-5301.834,0
14404.874,-15151.331,-13647.171,-9237.462,-13082.364,-951.894,-15594.566,-7639.401,-5298.906,0
14404.874,-15149.432,-13643.996,-9234.824,-13075.592,-954.799,-15594.723,-7642.039,-5309.590,0
14404.874,-15150.817,-13644.131,-9234.243,-13076.933,-954.889,-15597.517,-7638.977,-5311.021,0
14404.874,-15149.812,-13642.768,-9235.204,-13081.067,-953.615,-15600.668,-7640.385,-5306.550,0
14404.874,-15149.409,-13645.383,-9235.875,-13084.688,-954.196,-15604.267,-7641.436,-5309.791,0
14404.932,-15150.102,-13647.394,-9235.294,-13082.409,-954.419,-15601.607,-7639.849,-5308.808,0
14404.932,-15150.705,-13646.165,-9233.863,-13075.748,-955.626,-15599.104,-7650.756,-5318.307,0
14404.932,-15152.493,-13645.271,-9235.339,-13075.793,-956.498,-15602.345,-7654.064,-5325.437,0
14404.932,-15154.192,-13650.881,-9238.736,-13081.582,-955.157,-15606.346,-7648.946,-5318.799,0
14404.933,-15155.422,-13651.819,-9240.927,-13085.963,-955.202,-15610.324,-7647.403,-5319.693,0
14404.933,-15156.248,-13651.507,-9238.400,-13082.498,-955.582,-15609.027,-7649.371,-5323.873,0
14404.933,-15155.063,-13649.696,-9236.389,-13074.810,-955.224,-15604.334,-7653.953,-5327.851,0
14404.933,-15155.422,-13647.617,-9238.825,-13075.882,-955.291,-15605.474,-7657.350,-5331.472,0
14404.933,-15158.216,-13650.971,-9242.692,-13084.019,-956.051,-15610.369,-7658.848,-5329.081,0
14404.934,-15155.980,-13652.691,-9242.268,-13086.320,-954.084,-15609.452,-7657.819,-5325.817,0
14404.934,-15152.940,-13652.803,-9239.562,-13082.543,-953.660,-15603.060,-7656.948,-5323.828,0
14404.934,-15149.163,-13648.959,-9236.501,-13075.703,-954.196,-15596.242,-7657.909,-5322.353,0
14404.934,-15148.426,-13643.795,-9236.345,-13075.793,-953.995,-15594.856,-7657.641,-5321.883,0
14404.934,-15149.186,-13641.247,-9238.267,-13079.794,-953.727,-15599.015,-7652.142,-5319.693,0
14404.934,-15148.157,-13642.365,-9239.675,-13083.191,-956.096,-15604.289,-7652.478,-5319.536,0
