timestamps,Fz,F3,C4,Cz,Pz,P3,O2,O1,Marker
14134.640,-9564.848,-8817.674,-3492.438,-7328.534,3231.794,-10695.757,-2861.783,-617.556,0
14134.640,-9566.592,-8818.165,-3496.998,-7333.339,3233.515,-10695.221,-2865.248,-609.845,0
14134.640,-9567.619,-8823.955,-3498.808,-7347.443,3237.248,-10702.373,-2856.933,-588.678,0
14134.641,-9564.870,-8823.820,-3493.622,-7350.863,3240.467,-10704.474,-2841.711,-580.721,0
14134.641,-9563.238,-8819.395,-3488.191,-7340.581,3238.008,-10699.311,-2845.623,-595.272,0
14134.641,-9564.691,-8815.126,-3489.309,-7329.741,3234.253,-10690.817,-2859.861,-604.324,0
14134.641,-9567.530,-8818.702,-3494.159,-7335.127,3233.269,-10694.058,-2860.375,-609.912,0
14134.641,-9566.814,-8822.100,-3494.338,-7346.907,3237.449,-10701.881,-2843.388,-598.155,0
14134.641,-9564.736,-8822.211,-3491.767,-7350.237,3239.394,-10701.948,-2838.314,-577.659,0
14134.642,-9565.451,-8820.981,-3490.538,-7341.140,3235.706,-10694.572,-2852.619,-575.312,0
14134.642,-9566.814,-8816.243,-3491.544,-7329.405,3232.241,-10687.866,-2855.234,-594.042,0
14134.642,-9567.978,-8816.243,-3496.014,-7334.188,3230.743,-10693.275,-2859.593,-610.985,0
14134.642,-9566.278,-8818.970,-3496.662,-7346.102,3235.303,-10700.160,-2852.619,-593.729,0
14134.642,-9562.612,-8820.043,-3493.823,-7350.058,3236.488,-10702.283,-2846.472,-576.831,0
14134.643,-9562.121,-8820.535,-3491.700,-7341.073,3233.336,-10695.868,-2845.511,-576.653,0
14134.700,-9561.115,-8817.160,-3491.991,-7330.344,3228.352,-10690.884,-2867.371,-601.910,0
14134.701,-9564.445,-8819.708,-3497.668,-7335.440,3229.156,-10694.371,-2871.953,-606.604,0
14134.701,-9564.848,-8825.140,-3496.953,-7347.734,3234.879,-10703.558,-2845.198,-595.451,0
14134.701,-9563.552,-8827.620,-3494.338,-7351.176,3238.142,-10702.887,-2834.447,-570.707,0
14134.701,-9560.534,-8821.831,-3491.432,-7340.201,3233.113,-10697.813,-2858.028,-595.026,0
14134.701,-9563.932,-8820.870,-3495.165,-7329.293,3230.364,-10692.270,-2864.354,-602.223,0
14134.702,-9564.110,-8819.596,-3498.629,-7333.026,3230.520,-10695.086,-2861.493,-602.201,0
14134.702,-9560.847,-8820.468,-3497.869,-7345.923,3233.582,-10704.071,-2858.833,-599.273,0
14134.702,-9557.562,-8821.607,-3494.114,-7350.863,3235.482,-10706.776,-2842.114,-595.830,0
14134.702,-9554.343,-8817.495,-3492.818,-7341.006,3232.018,-10699.423,-2851.166,-599.876,0
14134.702,-9557.159,-8814.365,-3496.886,-7331.350,3225.424,-10694.058,-2873.026,-617.042,0
14134.703,-9559.998,-8814.478,-3501.222,-7335.038,3225.580,-10697.857,-2872.087,-621.021,0
14134.703,-9561.316,-8819.932,-3502.384,-7348.695,3229.559,-10705.189,-2860.621,-598.043,0
14134.703,-9560.780,-8822.479,-3500.261,-7353.567,3230.811,-10706.463,-2848.909,-577.435,0
14134.703,-9557.896,-8818.501,-3494.561,-7340.670,3229.559,-10700.205,-2850.004,-588.946,0
14134.761,-9559.886,-8813.605,-3495.165,-7329.741,3224.865,-10694.640,-2873.294,-610.873,0
14134.761,-9562.210,-8813.338,-3499.948,-7335.373,3223.323,-10696.808,-2886.303,-615.388,0
14134.761,-9565.094,-8821.652,-3501.490,-7350.125,3229.134,-10703.513,-2849.244,-593.372,0
14134.761,-9562.635,-8822.256,-3496.662,-7353.523,3231.526,-10706.933,-2834.022,-584.878,0
14134.761,-9561.540,-8818.970,-3492.997,-7343.755,3226.117,-10703.625,-2851.501,-609.242,0
14134.761,-9562.501,-8813.650,-3492.214,-7332.579,3224.016,-10695.466,-2873.115,-614.762,0
14134.761,-9565.184,-8815.394,-3496.886,-7337.899,3225.536,-10696.047,-2873.630,-589.438,0
14134.761,-9564.624,-8820.244,-3497.757,-7350.215,3232.688,-10701.233,-2846.651,-570.059,0
14134.761,-9561.875,-8821.943,-3493.622,-7354.171,3235.884,-10706.440,-2835.006,-582.621,0
14134.761,-9562.232,-8821.541,-3491.231,-7344.515,3233.269,-10700.294,-2842.292,-585.772,0
14134.761,-9562.903,-8816.690,-3493.913,-7333.317,3228.553,-10692.471,-2868.846,-592.746,0
14134.762,-9564.736,-8818.523,-3496.372,-7337.340,3228.285,-10698.707,-2864.018,-605.196,0
14134.762,-9564.468,-8825.229,-3495.857,-7349.388,3231.950,-10709.749,-2850.339,-602.402,0
14134.762,-9563.663,-8829.274,-3492.527,-7354.461,3234.677,-10711.671,-2840.974,-590.399,0
14134.762,-9563.529,-8824.134,-3491.387,-7345.320,3233.113,-10701.166,-2850.652,-581.704,0
14134.821,-9564.803,-8817.785,-3493.488,-7335.552,3228.106,-10695.221,-2863.147,-597.552,0
14134.821,-9563.306,-8815.908,-3494.002,-7338.301,3227.838,-10699.222,-2878.078,-610.337,0
14134.821,-9562.770,-8819.507,-3492.997,-7349.857,3234.722,-10705.904,-2865.918,-595.316,0
14134.822,-9559.886,-8821.585,-3489.487,-7352.964,3237.717,-10708.632,-2841.354,-596.143,0
14134.822,-9557.807,-8817.964,-3487.721,-7343.375,3234.141,-10701.345,-2841.309,-594.154,0
14134.822,-9556.645,-8811.505,-3489.823,-7332.870,3227.838,-10695.198,-2867.617,-610.493,0
14134.822,-9554.723,-8809.493,-3492.997,-7336.133,3225.871,-10700.764,-2889.343,-638.075,0
14134.822,-9555.505,-8814.925,-3495.008,-7349.097,3232.152,-10705.278,-2878.480,-608.347,0
14134.823,-9558.366,-8821.026,-3494.002,-7354.439,3237.471,-10704.519,-2838.984,-574.887,0
14134.823,-9557.404,-8818.210,-3492.840,-7344.649,3233.090,-10700.138,-2842.471,-595.875,0
14134.823,-9558.791,-8813.226,-3493.421,-7332.847,3230.766,-10693.187,-2859.883,-606.224,0
14134.823,-9562.367,-8814.365,-3498.652,-7339.173,3230.073,-10695.958,-2873.518,-588.544,0
14134.824,-9560.444,-8816.020,-3496.819,-7351.243,3232.509,-10705.904,-2856.151,-584.185,0
14134.824,-9562.210,-8820.155,-3496.349,-7354.998,3234.320,-10707.581,-2842.158,-583.872,0
14134.824,-9566.368,-8822.145,-3496.461,-7346.616,3231.794,-10698.797,-2842.382,-587.337,0
14134.881,-9566.569,-8818.121,-3495.857,-7335.977,3228.955,-10690.348,-2857.559,-598.803,0
14134.882,-9567.888,-8820.043,-3498.674,-7340.112,3229.894,-10692.694,-2864.197,-599.518,0
14134.882,-9566.256,-8823.508,-3499.099,-7352.405,3233.135,-10702.172,-2854.675,-593.819,0
14134.882,-9565.496,-8827.911,-3495.634,-7356.384,3235.393,-10704.608,-2844.304,-576.809,0
14134.882,-9567.485,-8828.872,-3492.661,-7346.951,3232.755,-10699.602,-2850.272,-582.151,0
14134.882,-9571.956,-8826.234,-3494.695,-7337.653,3229.224,-10693.164,-2865.337,-598.133,0
14134.883,-9572.648,-8824.312,-3497.735,-7342.280,3230.855,-10696.360,-2867.773,-609.957,0
14134.883,-9573.006,-8828.760,-3499.143,-7354.506,3235.102,-10706.083,-2845.310,-604.548,0
14134.883,-9574.034,-8833.901,-3496.729,-7358.172,3239.349,-10705.658,-2823.115,-579.290,0
14134.883,-9574.124,-8831.845,-3493.645,-7347.957,3235.281,-10700.585,-2838.716,-595.272,0
14134.883,-9577.834,-8828.045,-3496.908,-7339.240,3231.571,-10691.845,-2858.587,-595.473,0
14134.883,-9577.879,-8827.419,-3502.496,-7344.314,3231.012,-10695.176,-2875.217,-590.913,0
14134.884,-9578.996,-8833.655,-3503.569,-7358.127,3235.147,-10705.212,-2854.742,-583.872,0
14134.884,-9577.164,-8836.628,-3498.584,-7361.413,3236.801,-10708.967,-2837.219,-581.950,0
14134.884,-9575.845,-8832.538,-3495.031,-7350.572,3233.515,-10700.741,-2848.573,-591.450,0
14134.940,-9577.969,-8827.956,-3495.299,-7340.894,3229.738,-10692.493,-2871.685,-600.614,0
14134.940,-9580.182,-8828.090,-3499.993,-7347.264,3227.860,-10696.069,-2871.216,-605.956,0
14134.940,-9578.349,-8831.800,-3500.552,-7358.731,3232.442,-10703.558,-2852.016,-588.454,0
14134.940,-9576.292,-8833.499,-3497.869,-7361.771,3235.817,-10703.870,-2841.153,-568.450,0
14134.940,-9574.839,-8829.363,-3495.925,-7351.422,3231.950,-10698.461,-2849.669,-580.050,0
14134.941,-9573.229,-8820.535,-3497.087,-7340.201,3224.910,-10693.008,-2878.189,-602.804,0
14134.941,-9572.045,-8818.702,-3500.753,-7343.688,3225.603,-10694.125,-2884.940,-605.598,0
14134.941,-9571.956,-8822.636,-3502.161,-7357.032,3229.917,-10702.373,-2851.501,-591.584,0
14134.941,-9570.168,-8824.401,-3498.540,-7360.474,3230.922,-10706.419,-2834.447,-582.956,0
14134.941,-9569.363,-8820.960,-3495.433,-7350.707,3227.234,-10700.942,-2840.259,-589.594,0
14134.941,-9568.737,-8815.126,-3496.908,-7339.978,3222.026,-10693.008,-2864.018,-591.226,0
14134.941,-9567.798,-8815.796,-3500.350,-7343.755,3221.356,-10695.958,-2876.938,-599.518,0
14134.941,-9568.089,-8819.149,-3500.976,-7356.719,3227.123,-10704.451,-2864.018,-592.679,0
14134.941,-9566.972,-8821.026,-3497.199,-7360.832,3231.034,-10706.620,-2847.433,-587.225,0
14134.941,-9567.575,-8819.819,-3496.014,-7350.617,3228.285,-10700.831,-2851.278,-587.314,0
14135.000,-9568.559,-8815.908,-3497.020,-7338.882,3225.536,-10697.165,-2867.863,-606.716,0
14135.001,-9572.313,-8819.238,-3502.429,-7345.610,3225.804,-10702.328,-2870.076,-611.678,0
14135.001,-9571.844,-8824.737,-3502.205,-7357.814,3231.034,-10710.665,-2858.699,-600.636,0
14135.001,-9568.156,-8825.318,-3496.908,-7361.458,3232.308,-10714.935,-2849.646,-601.843,0
14135.001,-9568.066,-8822.726,-3493.220,-7351.086,3228.665,-10707.514,-2862.633,-600.368,0
14135.001,-9572.560,-8821.697,-3496.685,-7341.140,3223.658,-10703.804,-2869.338,-623.703,0
14135.002,-9574.057,-8823.843,-3501.200,-7346.191,3225.826,-10704.876,-2871.551,-611.499,0
14135.002,-9572.515,-8827.911,-3501.758,-7359.155,3229.805,-10714.175,-2863.169,-603.922,0
14135.002,-9571.911,-8831.644,-3499.657,-7362.821,3233.157,-10712.364,-2849.758,-571.959,0
14135.002,-9570.033,-8828.983,-3496.841,-7351.802,3228.754,-10705.726,-2847.344,-586.912,0
14135.002,-9572.336,-8826.391,-3498.540,-7341.028,3224.373,-10700.920,-2855.748,-610.538,0
14135.003,-9576.023,-8829.252,-3504.329,-7346.214,3225.491,-10701.858,-2870.657,-609.398,0
14135.003,-9579.310,-8834.304,-3507.235,-7360.072,3231.950,-10706.978,-2857.358,-583.381,0
14135.003,-9578.527,-8833.924,-3502.161,-7363.268,3236.108,-10708.408,-2839.208,-583.850,0
14135.003,-9581.790,-8834.103,-3500.596,-7354.193,3233.828,-10702.238,-2836.950,-595.138,0
14135.061,-9587.155,-8833.723,-3504.575,-7343.934,3229.782,-10695.556,-2853.469,-602.022,0
14135.061,-9585.791,-8833.432,-3509.358,-7348.270,3227.458,-10698.372,-2874.457,-601.910,0
14135.061,-9583.333,-8836.427,-3510.543,-7360.184,3232.375,-10703.848,-2859.369,-578.687,0
14135.061,-9580.763,-8836.315,-3505.804,-7363.067,3234.163,-10708.653,-2841.734,-580.408,0
14135.061,-9579.936,-8832.448,-3501.669,-7351.936,3229.917,-10703.960,-2858.185,-596.792,0
14135.061,-9581.120,-8829.297,-3503.904,-7342.146,3224.329,-10700.093,-2871.864,-620.440,0
14135.062,-9579.757,-8829.162,-3508.419,-7346.594,3225.983,-10701.702,-2865.896,-605.308,0
14135.062,-9579.757,-8834.125,-3507.078,-7359.669,3229.849,-10711.067,-2852.686,-591.695,0
14135.062,-9577.924,-8835.242,-3501.378,-7362.419,3232.889,-10712.789,-2842.538,-581.950,0
14135.062,-9577.365,-8832.538,-3499.367,-7352.450,3229.537,-10706.754,-2852.574,-589.036,0
14135.062,-9579.622,-8827.554,-3501.110,-7342.526,3224.999,-10699.109,-2876.759,-607.789,0
14135.063,-9584.495,-8831.375,-3505.804,-7348.315,3224.999,-10701.099,-2879.061,-606.068,0
14135.063,-9585.568,-8836.695,-3505.670,-7359.558,3229.648,-10710.531,-2857.872,-598.401,0
14135.063,-9582.931,-8838.886,-3502.004,-7362.799,3231.190,-10714.577,-2847.590,-604.861,0
14135.063,-9582.953,-8838.572,-3498.696,-7351.623,3230.922,-10707.201,-2846.986,-600.457,0
14135.121,-9585.076,-8837.433,-3501.446,-7341.900,3226.385,-10700.384,-2872.579,-596.099,0
14135.121,-9585.523,-8839.601,-3505.000,-7347.220,3224.597,-10707.201,-2878.592,-619.032,0
14135.121,-9585.992,-8844.786,-3507.860,-7360.519,3230.140,-10714.912,-2855.413,-600.413,0
14135.121,-9581.991,-8846.329,-3504.105,-7363.246,3232.129,-10717.505,-2846.182,-588.834,0
14135.121,-9578.930,-8841.031,-3500.127,-7351.489,3230.028,-10709.056,-2853.469,-587.113,0
14135.122,-9579.667,-8833.901,-3503.569,-7340.581,3224.440,-10702.283,-2880.670,-599.027,0
14135.122,-9579.891,-8832.516,-3507.615,-7344.649,3224.641,-10706.530,-2879.598,-610.516,0
14135.122,-9580.472,-8838.595,-3506.586,-7357.323,3229.715,-10716.856,-2846.696,-613.757,0
14135.122,-9579.131,-8840.473,-3503.301,-7361.123,3233.359,-10715.337,-2837.912,-594.981,0
14135.122,-9576.202,-8834.729,-3499.747,-7350.572,3230.587,-10706.821,-2849.400,-586.376,0
14135.122,-9578.952,-8833.723,-3502.272,-7341.185,3223.591,-10704.496,-2873.741,-616.439,0
14135.123,-9584.651,-8838.192,-3509.380,-7347.689,3222.652,-10708.811,-2881.028,-608.102,0
14135.123,-9585.166,-8841.479,-3510.744,-7360.362,3226.519,-10717.907,-2866.924,-593.081,0
14135.123,-9581.656,-8840.763,-3506.788,-7362.933,3229.380,-10719.137,-2854.005,-579.536,0
14135.123,-9579.578,-8835.801,-3504.306,-7352.808,3225.267,-10714.130,-2864.287,-598.535,0
14135.181,-9581.188,-8831.979,-3506.050,-7342.414,3220.953,-10709.012,-2878.771,-622.854,0
14135.181,-9583.042,-8832.604,-3509.716,-7347.063,3223.814,-10709.615,-2882.637,-617.199,0
14135.182,-9583.154,-8837.209,-3508.710,-7359.580,3228.978,-10716.790,-2867.662,-606.380,0
14135.182,-9580.539,-8837.410,-3504.776,-7363.715,3230.811,-10718.556,-2854.407,-596.277,0
14135.182,-9578.035,-8831.085,-3502.943,-7353.389,3227.346,-10710.621,-2861.314,-597.596,0
14135.182,-9579.980,-8825.452,-3506.966,-7342.749,3222.965,-10704.184,-2873.719,-622.742,0
14135.182,-9586.529,-8831.085,-3513.672,-7348.784,3224.776,-10705.256,-2868.802,-609.800,0
14135.182,-9587.133,-8835.466,-3515.013,-7360.250,3229.626,-10711.783,-2855.368,-588.968,0
14135.183,-9583.981,-8833.924,-3510.811,-7360.832,3230.788,-10715.359,-2856.151,-597.082,0
14135.183,-9585.770,-8832.270,-3509.537,-7350.684,3227.346,-10707.760,-2861.359,-599.317,0
14135.183,-9590.843,-8832.649,-3513.337,-7342.749,3221.557,-10701.858,-2875.396,-609.085,0
14135.183,-9591.603,-8835.354,-3515.594,-7346.951,3222.943,-10703.356,-2879.933,-606.828,0
14135.183,-9589.100,-8839.109,-3514.432,-7357.971,3227.927,-10709.883,-2863.348,-591.047,0
14135.183,-9586.417,-8839.153,-3509.492,-7360.250,3230.341,-10711.537,-2848.350,-585.169,0
14135.184,-9586.932,-8835.556,-3507.570,-7350.170,3227.994,-10703.200,-2852.016,-583.023,0
14135.241,-9589.032,-8834.259,-3509.179,-7340.693,3224.150,-10697.053,-2867.639,-604.950,0
14135.242,-9590.687,-8833.745,-3514.879,-7346.951,3224.060,-10699.154,-2874.345,-595.115,0
14135.242,-9589.993,-8836.271,-3516.063,-7358.664,3227.458,-10707.805,-2861.739,-586.130,0
14135.242,-9586.193,-8834.907,-3511.258,-7360.407,3231.772,-10708.587,-2850.406,-583.559,0
14135.242,-9584.629,-8828.983,-3510.163,-7351.176,3229.335,-10701.322,-2861.046,-588.790,0
14135.243,-9586.887,-8825.631,-3512.174,-7341.587,3224.217,-10697.769,-2875.105,-609.912,0
14135.243,-9588.161,-8826.972,-3515.996,-7346.817,3224.552,-10703.334,-2877.698,-617.623,0
14135.243,-9587.714,-8833.320,-3515.259,-7359.446,3227.436,-10713.124,-2871.506,-608.191,0
14135.243,-9585.546,-8832.984,-3510.073,-7361.994,3228.106,-10716.477,-2859.615,-607.431,0
14135.243,-9585.858,-8831.331,-3507.123,-7350.975,3224.954,-10708.653,-2869.316,-608.325,0
14135.243,-9587.691,-8830.369,-3508.464,-7340.380,3219.769,-10701.144,-2890.930,-608.325,0
14135.244,-9589.703,-8831.397,-3512.219,-7346.258,3221.468,-10704.116,-2873.831,-607.453,0
14135.244,-9591.200,-8835.443,-3514.454,-7359.558,3227.324,-10710.643,-2853.156,-587.158,0
14135.244,-9588.026,-8835.868,-3511.370,-7361.704,3230.520,-10710.151,-2846.204,-568.427,0
14135.244,-9585.501,-8832.091,-3509.269,-7350.460,3226.541,-10704.787,-2859.280,-586.309,0
14135.301,-9586.015,-8826.503,-3511.705,-7342.034,3219.568,-10703.669,-2885.186,-624.150,0
14135.301,-9589.055,-8829.609,-3516.421,-7349.410,3220.819,-10705.614,-2879.955,-610.739,0
14135.301,-9587.267,-8833.745,-3515.505,-7362.150,3224.105,-10714.398,-2867.930,-593.059,0
14135.301,-9582.573,-8833.343,-3509.872,-7364.207,3225.983,-10716.388,-2857.715,-587.337,0
14135.301,-9577.409,-8827.575,-3506.005,-7352.606,3221.781,-10711.939,-2870.635,-610.806,0
14135.302,-9580.539,-8827.575,-3508.285,-7342.548,3217.131,-10707.000,-2879.709,-618.495,0
14135.302,-9582.729,-8831.264,-3512.398,-7348.672,3218.182,-10711.269,-2877.675,-612.862,0
14135.302,-9578.907,-8831.555,-3513.180,-7361.256,3224.217,-10717.550,-2871.305,-600.971,0
14135.302,-9573.699,-8830.526,-3508.084,-7362.754,3228.128,-10717.975,-2855.815,-595.115,0
14135.302,-9574.258,-8828.671,-3505.022,-7352.606,3225.647,-10710.441,-2856.240,-580.721,0
14135.302,-9577.187,-8827.106,-3507.771,-7342.749,3221.691,-10703.401,-2869.092,-590.846,0
14135.303,-9577.745,-8825.787,-3511.057,-7348.114,3222.675,-10706.575,-2864.219,-598.714,0
14135.303,-9572.827,-8824.066,-3508.598,-7358.351,3228.486,-10713.481,-2854.742,-588.611,0
14135.303,-9571.665,-8826.749,-3506.810,-7362.933,3228.978,-10717.818,-2852.418,-586.890,0
14135.303,-9570.950,-8824.961,-3504.240,-7351.846,3226.318,-10711.492,-2861.671,-597.350,0
14135.361,-9570.503,-8819.439,-3505.402,-7341.676,3221.512,-10704.519,-2881.900,-613.824,0
14135.361,-9571.598,-8817.339,-3509.939,-7349.410,3221.557,-10706.664,-2880.313,-620.753,0
14135.361,-9572.269,-8820.646,-3510.051,-7362.352,3228.017,-10710.509,-2861.761,-595.026,0
14135.361,-9573.855,-8824.290,-3507.346,-7364.944,3231.749,-10709.458,-2844.952,-572.473,0
14135.362,-9573.521,-8821.026,-3503.837,-7353.299,3228.844,-10702.127,-2854.027,-575.155,0
14135.362,-9573.387,-8815.975,-3504.798,-7341.699,3224.910,-10695.891,-2868.265,-598.334,0
14135.362,-9574.728,-8816.534,-3507.145,-7346.281,3227.458,-10698.148,-2859.682,-599.831,0
14135.362,-9574.571,-8819.864,-3505.960,-7358.798,3233.269,-10705.569,-2845.578,-588.141,0
14135.362,-9572.962,-8821.831,-3502.675,-7361.480,3235.862,-10705.904,-2838.336,-573.456,0
14135.362,-9573.274,-8818.635,-3500.328,-7352.360,3231.369,-10699.042,-2847.456,-580.922,0
14135.362,-9572.224,-8811.370,-3500.976,-7342.526,3227.771,-10692.002,-2860.621,-603.139,0
14135.363,-9571.353,-8810.142,-3504.843,-7346.728,3228.084,-10695.846,-2874.077,-606.939,0
14135.363,-9571.285,-8814.701,-3506.251,-7359.982,3233.135,-10702.730,-2863.549,-584.520,0
14135.363,-9574.079,-8819.797,-3504.709,-7365.101,3236.510,-10702.574,-2846.651,-547.372,0
14135.363,-9575.085,-8820.065,-3501.200,-7354.037,3233.940,-10698.372,-2833.620,-569.902,0
14135.421,-9574.169,-8816.221,-3502.831,-7342.503,3227.838,-10696.114,-2858.587,-610.560,0
14135.421,-9576.604,-8816.735,-3510.833,-7349.120,3227.525,-10698.931,-2867.550,-595.003,0
14135.421,-9575.688,-8821.272,-3511.660,-7360.876,3233.739,-10705.614,-2853.357,-577.703,0
14135.422,-9574.034,-8823.373,-3507.078,-7363.044,3234.968,-10709.637,-2842.807,-575.155,0
14135.422,-9575.196,-8822.233,-3504.552,-7352.517,3228.620,-10706.419,-2855.927,-595.585,0
14135.422,-9579.108,-8821.429,-3508.307,-7342.906,3222.294,-10702.396,-2881.319,-620.551,0
14135.422,-9581.410,-8826.391,-3513.180,-7349.902,3223.099,-10704.340,-2878.100,-609.219,0
14135.422,-9582.662,-8831.196,-3513.493,-7362.396,3229.246,-10710.375,-2857.022,-586.577,0
14135.422,-9579.958,-8831.487,-3510.386,-7364.811,3230.364,-10714.220,-2847.076,-588.231,0
14135.423,-9576.627,-8826.436,-3505.938,-7353.210,3226.497,-10709.190,-2854.429,-599.116,0
14135.423,-9575.420,-8820.244,-3507.302,-7342.280,3221.535,-10701.010,-2878.659,-598.490,0
14135.423,-9574.348,-8818.567,-3511.325,-7347.510,3221.825,-10704.071,-2880.715,-607.051,0
14135.423,-9578.482,-8829.632,-3514.052,-7361.234,3226.877,-10712.208,-2851.390,-594.467,0
14135.423,-9579.220,-8837.902,-3510.900,-7363.827,3229.693,-10711.984,-2849.087,-577.435,0
14135.424,-9577.499,-8832.717,-3505.447,-7351.914,3226.229,-10707.938,-2859.861,-599.787,0
14135.481,-9579.421,-8826.815,-3506.743,-7342.257,3220.730,-10704.608,-2872.959,-620.328,0
14135.482,-9580.069,-8827.039,-3510.342,-7347.332,3220.752,-10707.871,-2880.939,-620.328,0
14135.482,-9583.623,-8835.265,-3513.381,-7361.592,3227.547,-10711.850,-2855.592,-582.531,0
14135.482,-9582.551,-8836.673,-3510.140,-7365.056,3230.408,-10712.364,-2847.523,-572.853,0
14135.482,-9581.679,-8833.565,-3507.123,-7353.210,3228.285,-10704.272,-2854.072,-584.364,0
14135.482,-9583.221,-8829.319,-3509.135,-7343.107,3224.843,-10697.276,-2865.874,-599.228,0
14135.483,-9585.144,-8831.666,-3515.505,-7350.416,3223.837,-10702.708,-2876.088,-597.999,0
14135.483,-9583.981,-8836.404,-3516.354,-7363.581,3227.346,-10713.214,-2863.281,-595.339,0
14135.483,-9581.790,-8838.908,-3512.286,-7364.721,3228.285,-10716.365,-2862.521,-596.613,0
14135.483,-9585.971,-8842.730,-3511.951,-7355.021,3225.267,-10710.710,-2850.093,-603.028,0
14135.483,-9590.865,-8839.534,-3515.952,-7346.862,3224.217,-10701.211,-2865.561,-597.999,0
14135.484,-9593.056,-8841.232,-3520.042,-7353.254,3226.564,-10703.736,-2869.673,-598.177,0
14135.484,-9592.832,-8844.228,-3520.467,-7365.034,3230.453,-10711.693,-2862.141,-587.471,0
14135.484,-9589.859,-8843.378,-3515.952,-7367.269,3230.453,-10714.577,-2862.677,-582.397,0
14135.484,-9588.317,-8840.159,-3512.621,-7356.228,3226.988,-10709.302,-2868.131,-598.826,0
14135.541,-9591.179,-8837.634,-3514.477,-7347.622,3224.820,-10702.597,-2872.780,-614.986,0
14135.542,-9592.341,-8838.461,-3518.768,-7354.484,3226.541,-10705.011,-2878.592,-612.214,0
14135.542,-9589.167,-8840.763,-3517.807,-7365.950,3231.258,-10711.604,-2860.956,-593.864,0
14135.542,-9586.686,-8841.948,-3513.135,-7368.677,3232.621,-10713.079,-2847.679,-586.979,0
14135.542,-9586.373,-8838.126,-3511.012,-7356.875,3228.844,-10704.742,-2865.114,-596.948,0
14135.542,-9593.234,-8838.260,-3515.013,-7347.890,3225.781,-10698.752,-2865.918,-602.357,0
14135.542,-9592.743,-8838.350,-3519.975,-7352.941,3226.944,-10702.820,-2869.383,-603.654,0
14135.542,-9589.636,-8841.903,-3519.036,-7364.989,3232.710,-10709.637,-2856.396,-588.901,0
14135.542,-9587.714,-8842.932,-3515.952,-7368.186,3233.716,-10711.358,-2846.204,-577.033,0
14135.542,-9587.736,-8839.266,-3513.649,-7357.122,3228.262,-10706.598,-2856.419,-589.572,0
14135.542,-9588.765,-8836.181,-3514.790,-7346.728,3223.524,-10700.831,-2871.663,-606.246,0
14135.542,-9587.580,-8836.114,-3516.645,-7352.204,3222.697,-10706.799,-2883.241,-618.875,0
14135.543,-9588.139,-8842.752,-3517.069,-7366.822,3227.614,-10715.448,-2865.695,-597.552,0
14135.543,-9585.456,-8843.355,-3511.839,-7368.007,3230.408,-10716.611,-2848.752,-590.667,0
14135.543,-9583.399,-8839.914,-3509.201,-7357.099,3225.781,-10711.067,-2859.213,-600.122,0
14135.602,-9580.562,-8832.560,-3509.939,-7345.655,3221.021,-10706.419,-2882.906,-620.194,0
14135.602,-9582.685,-8831.912,-3516.242,-7352.182,3222.697,-10708.341,-2876.535,-609.666,0
14135.602,-9582.305,-8834.393,-3516.578,-7364.587,3228.240,-10715.672,-2857.402,-592.858,0
14135.603,-9579.823,-8835.756,-3512.666,-7366.286,3231.772,-10715.807,-2850.428,-584.252,0
14135.603,-9575.957,-8829.855,-3509.604,-7355.244,3228.128,-10708.766,-2864.532,-597.261,0
14135.603,-9578.035,-8827.308,-3510.923,-7345.275,3224.440,-10703.223,-2877.519,-610.337,0
14135.603,-9581.545,-8832.783,-3514.343,-7351.690,3226.229,-10706.620,-2869.740,-606.895,0
14135.603,-9579.936,-8838.640,-3512.733,-7363.380,3230.833,-10714.062,-2855.301,-591.405,0
14135.604,-9578.058,-8840.897,-3508.464,-7365.615,3232.107,-10715.002,-2843.701,-581.078,0
14135.604,-9575.778,-8834.460,-3504.955,-7354.148,3226.742,-10707.156,-2860.621,-589.617,0
14135.604,-9580.226,-8831.420,-3508.039,-7344.358,3222.786,-10701.390,-2873.496,-603.430,0
14135.604,-9584.853,-8835.265,-3513.784,-7351.645,3223.993,-10708.028,-2873.496,-617.556,0
14135.604,-9582.752,-8837.478,-3513.448,-7363.760,3229.849,-10714.442,-2866.142,-596.300,0
14135.604,-9580.718,-8837.812,-3510.207,-7366.844,3233.649,-10712.274,-2850.473,-570.975,0
14135.605,-9577.253,-8831.219,-3507.369,-7354.663,3229.559,-10707.425,-2858.788,-603.698,0
14135.662,-9580.315,-8829.096,-3510.900,-7345.432,3227.167,-10699.847,-2873.920,-602.581,0
14135.662,-9584.674,-8833.879,-3515.862,-7352.495,3228.911,-10702.238,-2867.394,-590.466,0
14135.663,-9584.450,-8839.735,-3514.901,-7364.408,3233.157,-10710.889,-2845.131,-590.131,0
14135.663,-9583.623,-8841.836,-3512.085,-7367.269,3233.716,-10713.795,-2848.886,-591.405,0
14135.663,-9581.724,-8835.936,-3509.358,-7354.663,3229.581,-10707.022,-2861.671,-609.174,0
14135.663,-9584.562,-8833.409,-3512.554,-7346.035,3225.737,-10699.914,-2878.122,-604.861,0
14135.663,-9584.808,-8831.867,-3516.131,-7351.578,3226.541,-10705.882,-2879.665,-605.978,0
14135.663,-9582.729,-8834.684,-3516.287,-7363.357,3231.124,-10714.912,-2866.991,-596.501,0
14135.664,-9581.790,-8838.237,-3513.672,-7365.302,3233.649,-10715.561,-2864.778,-580.385,0
14135.664,-9583.959,-8837.902,-3512.062,-7354.461,3228.195,-10711.537,-2876.111,-595.540,0
14135.664,-9586.037,-8837.164,-3513.649,-7345.007,3222.540,-10710.330,-2877.094,-625.379,0
14135.664,-9583.780,-8835.153,-3516.667,-7349.745,3222.563,-10714.801,-2886.102,-627.279,0
14135.664,-9581.522,-8836.248,-3517.360,-7363.089,3226.072,-10723.607,-2881.006,-615.433,0
14135.664,-9583.243,-8841.277,-3514.856,-7366.688,3230.520,-10719.763,-2868.377,-579.335,0
14135.665,-9583.579,-8841.769,-3509.872,-7354.931,3229.089,-10710.219,-2856.866,-583.358,0
14135.722,-9581.857,-8838.104,-3510.476,-7345.432,3223.971,-10705.972,-2863.236,-610.784,0
14135.722,-9581.634,-8835.354,-3513.627,-7351.086,3224.284,-10710.464,-2873.562,-613.690,0
14135.722,-9581.344,-8838.595,-3512.778,-7362.687,3228.888,-10716.365,-2862.655,-601.508,0
14135.723,-9579.488,-8839.556,-3508.866,-7365.458,3230.207,-10717.281,-2854.474,-600.144,0
14135.723,-9580.092,-8836.024,-3508.442,-7355.110,3228.017,-10707.446,-2861.314,-589.997,0
14135.723,-9581.389,-8829.811,-3511.168,-7346.057,3223.703,-10701.702,-2880.291,-614.896,0
14135.723,-9582.327,-8830.213,-3515.527,-7352.651,3226.273,-10705.077,-2880.112,-606.984,0
14135.723,-9580.114,-8834.058,-3514.544,-7364.699,3230.587,-10712.990,-2864.734,-589.639,0
14135.723,-9578.482,-8835.645,-3509.179,-7366.375,3232.465,-10715.068,-2852.686,-588.208,0
14135.723,-9580.605,-8834.930,-3508.531,-7355.311,3229.402,-10706.620,-2859.950,-592.522,0
14135.723,-9584.897,-8832.940,-3512.644,-7347.935,3224.038,-10702.172,-2874.188,-612.080,0
14135.723,-9585.389,-8832.136,-3515.818,-7353.858,3227.547,-10702.552,-2869.673,-598.066,0
14135.723,-9583.399,-8835.488,-3514.074,-7367.001,3231.012,-10712.051,-2857.581,-595.875,0
14135.724,-9580.650,-8835.891,-3510.721,-7368.588,3231.414,-10713.325,-2854.228,-589.818,0
14135.724,-9583.288,-8834.840,-3510.274,-7358.038,3228.240,-10705.413,-2858.654,-592.232,0
14135.724,-9586.977,-8835.801,-3513.448,-7349.678,3226.899,-10697.902,-2872.579,-585.638,0
14135.782,-9586.797,-8837.433,-3516.958,-7354.529,3228.441,-10704.474,-2886.102,-603.698,0
14135.782,-9588.943,-8844.607,-3516.242,-7367.113,3236.890,-10711.895,-2841.376,-590.645,0
14135.783,-9588.340,-8845.993,-3514.052,-7370.197,3236.980,-10712.610,-2840.504,-568.405,0
14135.783,-9587.043,-8841.322,-3509.649,-7357.993,3231.034,-10707.737,-2851.054,-589.416,0
14135.783,-9588.161,-8837.231,-3510.185,-7347.152,3226.497,-10702.887,-2871.774,-604.659,0
14135.783,-9590.485,-8839.958,-3514.231,-7355.333,3226.676,-10708.922,-2866.209,-606.135,0
14135.783,-9589.658,-8843.468,-3512.912,-7367.604,3232.107,-10715.672,-2852.641,-588.767,0
14135.783,-9587.267,-8844.026,-3509.112,-7368.833,3232.867,-10716.745,-2844.930,-581.391,0
14135.784,-9583.623,-8838.371,-3507.078,-7356.607,3227.458,-10710.889,-2860.666,-599.831,0
14135.784,-9585.456,-8835.265,-3510.610,-7347.935,3223.725,-10705.703,-2874.703,-607.967,0
14135.784,-9585.813,-8833.723,-3514.275,-7353.657,3225.379,-10709.749,-2876.982,-616.729,0
14135.784,-9585.255,-8838.014,-3514.454,-7365.838,3231.839,-10714.354,-2861.873,-592.724,0
14135.784,-9583.690,-8840.920,-3511.370,-7369.191,3232.487,-10715.739,-2849.669,-583.626,0
14135.785,-9580.159,-8832.761,-3507.816,-7357.434,3228.173,-10707.760,-2861.783,-597.820,0
14135.785,-9579.153,-8825.966,-3509.448,-7347.376,3225.133,-10700.875,-2878.972,-604.123,0
14135.843,-9578.817,-8825.161,-3512.487,-7353.322,3225.401,-10706.083,-2886.057,-604.436,0
14135.843,-9580.874,-8831.711,-3512.443,-7366.599,3232.241,-10714.442,-2846.383,-578.709,0
14135.843,-9579.533,-8834.326,-3508.933,-7368.632,3233.381,-10716.343,-2836.883,-566.125,0
14135.843,-9577.320,-8830.124,-3506.273,-7357.211,3228.285,-10710.106,-2844.997,-580.497,0
14135.843,-9578.147,-8824.625,-3509.716,-7347.354,3222.205,-10705.167,-2867.036,-603.162,0
14135.843,-9580.226,-8825.966,-3514.834,-7353.880,3224.552,-10709.190,-2867.371,-599.116,0
14135.844,-9577.320,-8827.062,-3513.270,-7364.676,3230.006,-10717.349,-2861.113,-599.451,0
14135.844,-9575.286,-8826.458,-3510.431,-7366.867,3231.503,-10716.365,-2849.423,-587.516,0
14135.844,-9575.688,-8823.820,-3509.649,-7356.272,3228.464,-10707.335,-2862.990,-575.401,0
14135.844,-9578.326,-8821.161,-3512.532,-7347.488,3223.300,-10704.608,-2878.480,-597.887,0
14135.844,-9580.718,-8824.647,-3516.086,-7353.679,3225.647,-10709.056,-2865.851,-600.949,0
14135.844,-9582.215,-8832.113,-3517.025,-7367.314,3229.514,-10716.700,-2847.031,-589.192,0
14135.845,-9579.891,-8835.712,-3512.197,-7369.125,3230.855,-10718.399,-2840.817,-583.626,0
14135.845,-9578.214,-8833.097,-3508.464,-7356.406,3228.017,-10710.308,-2850.384,-598.066,0
14135.845,-9581.254,-8832.292,-3511.302,-7347.577,3224.351,-10703.558,-2861.850,-593.573,0
14135.903,-9581.545,-8832.672,-3513.918,-7353.925,3224.329,-10709.480,-2867.550,-593.953,0
14135.903,-9579.108,-8835.511,-3512.644,-7365.771,3227.905,-10720.276,-2858.811,-597.417,0
14135.903,-9578.326,-8837.656,-3510.342,-7368.275,3230.498,-10720.165,-2850.428,-582.308,0
14135.903,-9577.924,-8834.058,-3509.045,-7356.741,3227.346,-10711.001,-2866.231,-579.044,0
14135.903,-9580.695,-8830.504,-3514.275,-7348.226,3223.479,-10705.658,-2877.273,-596.725,0
14135.903,-9582.126,-8832.113,-3518.410,-7353.925,3224.776,-10711.225,-2868.489,-608.504,0
14135.903,-9581.321,-8837.187,-3518.299,-7365.883,3229.827,-10718.443,-2858.162,-594.199,0
14135.903,-9581.947,-8842.306,-3516.488,-7369.638,3230.118,-10719.539,-2853.066,-587.605,0
14135.903,-9581.120,-8839.690,-3511.057,-7357.099,3226.676,-10713.459,-2870.232,-599.563,0
14135.903,-9583.311,-8837.120,-3512.711,-7348.315,3223.300,-10708.006,-2878.927,-609.465,0
14135.904,-9586.037,-8840.830,-3516.354,-7355.445,3222.898,-10713.526,-2882.056,-610.694,0
14135.904,-9588.474,-8846.284,-3516.622,-7368.186,3227.123,-10720.656,-2874.792,-592.098,0
14135.904,-9590.820,-8848.988,-3514.521,-7371.494,3229.984,-10721.438,-2846.986,-586.532,0
14135.904,-9591.983,-8848.653,-3512.621,-7360.072,3227.480,-10712.789,-2851.524,-587.314,0
14135.904,-9594.710,-8846.485,-3515.840,-7350.952,3223.993,-10708.475,-2876.312,-599.809,0
14135.963,-9596.185,-8844.630,-3521.316,-7358.105,3224.172,-10714.823,-2871.909,-616.930,0
14135.963,-9595.648,-8848.273,-3521.070,-7370.622,3228.352,-10723.450,-2864.175,-615.701,0
14135.964,-9596.767,-8853.749,-3520.556,-7374.891,3228.553,-10725.798,-2858.520,-602.290,0
14135.964,-9598.062,-8852.632,-3519.372,-7363.872,3226.832,-10714.421,-2869.785,-583.001,0
14135.964,-9600.029,-8848.832,-3520.310,-7354.819,3221.378,-10710.866,-2896.115,-608.124,0
14135.964,-9600.387,-8851.917,-3521.137,-7359.535,3224.418,-10716.901,-2880.156,-622.138,0
14135.964,-9601.236,-8856.565,-3522.501,-7373.036,3229.022,-10723.227,-2862.230,-595.652,0
14135.965,-9599.538,-8855.717,-3519.036,-7374.086,3231.347,-10722.668,-2854.474,-594.623,0
14135.965,-9597.414,-8849.302,-3516.399,-7362.083,3227.100,-10714.688,-2871.573,-604.659,0
14135.965,-9598.555,-8843.355,-3516.913,-7353.076,3225.223,-10706.128,-2877.295,-608.794,0
14135.965,-9599.270,-8844.742,-3522.166,-7361.212,3227.123,-10708.632,-2874.211,-602.961,0
14135.965,-9596.811,-8848.050,-3522.277,-7372.745,3231.973,-10716.969,-2871.596,-595.249,0
14135.966,-9595.872,-8849.436,-3518.746,-7374.198,3234.365,-10718.980,-2850.272,-591.070,0
14135.966,-9595.782,-8846.194,-3517.293,-7363.112,3229.648,-10712.543,-2859.615,-604.704,0
14135.966,-9596.699,-8842.686,-3519.282,-7354.305,3226.877,-10704.586,-2876.312,-606.157,0
14136.023,-9596.073,-8843.513,-3522.322,-7361.726,3227.145,-10708.564,-2876.379,-606.917,0
14136.023,-9592.608,-8846.418,-3520.646,-7373.192,3231.101,-10716.477,-2862.096,-596.054,0
14136.023,-9591.290,-8847.491,-3517.092,-7375.495,3235.281,-10713.526,-2840.884,-568.494,0
14136.023,-9591.156,-8843.938,-3513.962,-7364.676,3230.811,-10708.766,-2854.586,-593.014,0
14136.023,-9592.520,-8836.472,-3516.533,-7355.378,3223.770,-10707.514,-2880.782,-624.999,0
14136.024,-9591.737,-8835.712,-3521.674,-7360.139,3225.133,-10710.889,-2886.035,-613.824,0
14136.024,-9595.180,-8845.524,-3523.462,-7374.891,3230.967,-10715.851,-2861.671,-576.586,0
14136.024,-9595.895,-8848.184,-3519.528,-7377.327,3233.470,-10715.471,-2842.650,-568.628,0
14136.024,-9592.832,-8842.261,-3516.198,-7364.811,3228.553,-10710.375,-2867.729,-592.455,0
14136.024,-9595.135,-8844.854,-3518.813,-7356.250,3223.032,-10708.698,-2881.117,-613.533,0
14136.025,-9596.252,-8848.966,-3523.395,-7362.687,3224.507,-10713.906,-2873.920,-614.695,0
14136.025,-9594.710,-8850.330,-3522.948,-7372.723,3230.766,-10719.964,-2858.252,-599.742,0
14136.025,-9594.263,-8851.827,-3519.819,-7373.416,3230.922,-10720.724,-2852.552,-585.683,0
14136.025,-9593.347,-8849.101,-3516.555,-7361.502,3225.558,-10715.739,-2864.644,-600.725,0
14136.025,-9595.180,-8846.687,-3519.819,-7352.472,3221.400,-10711.515,-2887.443,-620.037,0
14136.083,-9596.677,-8849.949,-3523.127,-7359.021,3222.719,-10716.432,-2893.076,-618.987,0
14136.083,-9594.956,-8852.989,-3521.383,-7372.388,3227.458,-10725.238,-2874.345,-612.035,0
14136.083,-9594.419,-8854.822,-3517.583,-7375.204,3228.665,-10726.490,-2862.141,-598.177,0
14136.083,-9593.189,-8850.330,-3513.851,-7362.530,3225.558,-10717.394,-2863.638,-605.442,0
14136.083,-9595.537,-8845.949,-3517.203,-7354.372,3221.959,-10709.704,-2880.000,-609.197,0
14136.083,-9596.632,-8846.083,-3521.830,-7360.899,3222.988,-10713.325,-2894.082,-604.592,0
14136.083,-9594.755,-8848.095,-3520.892,-7372.321,3228.709,-10721.216,-2871.797,-599.206,0
14136.083,-9592.631,-8847.066,-3517.203,-7373.796,3229.849,-10725.641,-2850.451,-606.760,0
14136.084,-9593.347,-8845.278,-3515.169,-7362.575,3227.234,-10717.684,-2853.692,-606.403,0
14136.084,-9595.917,-8841.948,-3517.539,-7353.970,3222.049,-10710.129,-2872.244,-619.792,0
14136.084,-9598.532,-8844.160,-3521.517,-7361.681,3224.329,-10710.308,-2882.011,-597.641,0
14136.084,-9600.119,-8849.279,-3520.981,-7375.696,3228.508,-10717.907,-2862.946,-581.034,0
14136.084,-9597.012,-8849.078,-3516.175,-7376.590,3230.677,-10718.131,-2844.014,-574.149,0
14136.084,-9594.821,-8844.004,-3514.432,-7364.877,3225.893,-10713.079,-2867.751,-594.601,0
14136.084,-9595.581,-8839.176,-3517.203,-7356.518,3223.412,-10709.190,-2881.475,-617.042,0
14136.143,-9596.989,-8840.651,-3521.719,-7363.604,3227.123,-10711.648,-2874.166,-615.656,0
14136.143,-9597.549,-8845.859,-3523.730,-7377.238,3232.129,-10717.885,-2862.253,-590.757,0
14136.144,-9595.827,-8845.055,-3519.193,-7378.735,3233.157,-10719.293,-2855.726,-588.924,0
14136.144,-9597.414,-8845.613,-3517.762,-7369.035,3227.927,-10714.801,-2863.772,-599.876,0
14136.144,-9599.561,-8842.216,-3521.160,-7359.916,3224.194,-10710.174,-2884.336,-616.819,0
14136.144,-9603.807,-8845.904,-3526.368,-7366.777,3226.474,-10715.807,-2883.397,-616.618,0
14136.144,-9604.902,-8851.872,-3526.278,-7378.087,3232.442,-10723.920,-2866.276,-592.008,0
14136.144,-9603.964,-8854.219,-3522.098,-7379.339,3233.470,-10725.753,-2858.162,-587.583,0
14136.145,-9602.220,-8850.195,-3518.969,-7367.493,3227.771,-10718.757,-2876.088,-604.190,0
14136.145,-9600.901,-8845.412,-3520.556,-7358.217,3222.183,-10717.416,-2897.144,-637.226,0
14136.145,-9606.646,-8852.431,-3528.647,-7368.096,3224.865,-10718.868,-2877.161,-604.145,0
14136.145,-9602.689,-8855.403,-3527.284,-7378.512,3228.464,-10725.127,-2871.730,-584.722,0
14136.145,-9598.577,-8855.023,-3522.054,-7378.803,3229.782,-10726.401,-2863.303,-584.342,0
14136.146,-9596.654,-8845.658,-3519.796,-7367.806,3224.194,-10721.931,-2879.083,-614.338,0
14136.146,-9598.040,-8840.719,-3519.036,-7358.194,3222.026,-10715.561,-2881.632,-622.898,0
14136.204,-9597.638,-8841.031,-3522.277,-7364.833,3222.607,-10719.896,-2875.306,-619.434,0
14136.204,-9596.319,-8845.457,-3522.210,-7377.171,3224.619,-10730.871,-2859.190,-618.786,0
14136.204,-9596.141,-8849.548,-3519.729,-7378.467,3227.994,-10725.686,-2854.363,-576.094,0
14136.204,-9595.180,-8845.971,-3516.980,-7366.442,3223.367,-10717.349,-2872.199,-590.287,0
14136.204,-9595.336,-8842.819,-3518.969,-7358.306,3219.277,-10712.342,-2886.974,-606.358,0
14136.205,-9595.872,-8846.150,-3521.964,-7365.034,3221.468,-10718.466,-2878.301,-617.042,0
14136.205,-9597.079,-8850.195,-3519.483,-7376.389,3228.687,-10723.651,-2858.162,-599.541,0
14136.205,-9598.487,-8852.744,-3515.505,-7378.222,3230.386,-10722.668,-2850.943,-583.045,0
14136.205,-9600.588,-8851.492,-3513.225,-7366.464,3225.670,-10715.203,-2864.175,-590.891,0
14136.205,-9602.220,-8847.200,-3515.237,-7357.546,3221.132,-10711.135,-2882.280,-609.465,0
14136.205,-9602.220,-8847.916,-3517.650,-7363.044,3223.591,-10715.963,-2881.922,-615.947,0
14136.206,-9604.165,-8853.660,-3520.198,-7376.992,3226.497,-10726.110,-2868.086,-609.666,0
14136.206,-9604.500,-8856.521,-3518.746,-7379.026,3228.531,-10723.518,-2862.074,-584.141,0
14136.206,-9606.534,-8857.817,-3517.203,-7367.247,3226.161,-10717.595,-2864.309,-596.099,0
14136.206,-9606.087,-8854.554,-3518.366,-7356.831,3223.725,-10712.230,-2874.121,-610.046,0
14136.264,-9607.294,-8856.834,-3524.222,-7364.475,3223.792,-10717.862,-2882.369,-616.461,0
14136.264,-9608.099,-8861.506,-3525.787,-7377.864,3228.508,-10726.289,-2871.931,-606.805,0
14136.264,-9606.892,-8861.550,-3522.098,-7379.339,3231.637,-10725.619,-2865.136,-595.830,0
14136.265,-9607.719,-8857.639,-3520.824,-7368.789,3227.033,-10719.025,-2876.424,-603.184,0
14136.265,-9610.267,-8852.744,-3523.104,-7359.200,3224.284,-10712.744,-2886.214,-612.974,0
14136.265,-9612.122,-8852.609,-3528.335,-7367.895,3224.843,-10715.226,-2884.873,-598.937,0
14136.265,-9609.283,-8853.526,-3525.898,-7379.965,3227.055,-10725.842,-2874.121,-602.916,0
14136.265,-9608.813,-8857.460,-3521.160,-7380.568,3229.917,-10726.714,-2857.894,-600.748,0
14136.266,-9609.797,-8857.750,-3520.914,-7370.532,3228.352,-10716.187,-2857.402,-586.845,0
14136.266,-9610.267,-8854.979,-3522.613,-7363.335,3222.451,-10711.895,-2867.841,-606.090,0
14136.266,-9607.920,-8854.487,-3523.395,-7368.119,3223.725,-10716.142,-2880.022,-612.304,0
14136.266,-9606.869,-8857.750,-3523.104,-7379.294,3227.570,-10722.534,-2877.854,-599.183,0
14136.266,-9605.685,-8858.846,-3520.176,-7381.239,3228.844,-10723.719,-2862.901,-597.172,0
14136.267,-9608.031,-8857.951,-3520.333,-7370.979,3224.731,-10716.745,-2870.992,-607.811,0
14136.267,-9610.088,-8856.968,-3522.903,-7361.882,3220.573,-10712.610,-2896.831,-624.038,0
14136.323,-9611.966,-8860.164,-3527.753,-7370.711,3223.524,-10716.477,-2882.079,-615.701,0
14136.323,-9611.340,-8861.215,-3528.245,-7383.519,3231.459,-10720.143,-2856.821,-587.136,0
14136.323,-9610.669,-8861.841,-3524.758,-7385.486,3233.828,-10719.650,-2846.897,-582.397,0
14136.323,-9610.065,-8857.214,-3522.255,-7374.399,3230.296,-10713.102,-2858.319,-600.077,0
14136.324,-9609.328,-8851.336,-3524.624,-7365.369,3224.217,-10712.968,-2884.403,-630.520,0
14136.324,-9609.574,-8853.057,-3529.117,-7372.611,3226.229,-10716.410,-2886.325,-600.010,0
14136.324,-9608.881,-8860.410,-3527.932,-7384.949,3231.347,-10726.870,-2857.201,-587.672,0
14136.324,-9603.159,-8859.539,-3523.529,-7384.055,3230.989,-10730.268,-2859.258,-593.416,0
14136.324,-9601.103,-8853.392,-3521.853,-7371.695,3225.178,-10723.987,-2878.480,-612.594,0
14136.324,-9602.600,-8848.877,-3523.194,-7363.626,3219.746,-10721.327,-2891.444,-639.282,0
14136.324,-9605.595,-8852.162,-3528.938,-7372.120,3220.506,-10725.977,-2892.293,-632.979,0
14136.324,-9608.121,-8858.041,-3530.771,-7385.866,3224.977,-10732.234,-2876.982,-609.465,0
14136.324,-9605.595,-8858.421,-3528.335,-7386.156,3225.983,-10730.335,-2875.261,-588.052,0
14136.324,-9606.869,-8856.789,-3527.530,-7374.221,3221.378,-10724.456,-2883.643,-601.351,0
14136.324,-9611.987,-8856.142,-3531.062,-7366.822,3217.489,-10720.500,-2888.918,-615.724,0
14136.383,-9615.631,-8860.053,-3536.359,-7375.115,3218.316,-10724.747,-2887.153,-611.790,0
14136.384,-9613.820,-8863.249,-3534.727,-7386.067,3223.636,-10729.642,-2873.473,-593.193,0
14136.384,-9608.166,-8860.701,-3528.625,-7385.307,3223.725,-10730.961,-2867.416,-599.496,0
14136.384,-9607.853,-8857.326,-3524.892,-7373.595,3217.690,-10728.592,-2870.992,-630.923,0
14136.384,-9609.618,-8853.884,-3527.642,-7365.325,3213.600,-10721.081,-2897.635,-619.054,0
14136.384,-9611.943,-8856.253,-3531.441,-7373.416,3214.784,-10727.094,-2898.999,-628.330,0
14136.384,-9611.630,-8862.087,-3529.810,-7386.179,3221.870,-10734.381,-2884.292,-615.947,0
14136.385,-9610.602,-8863.271,-3524.781,-7387.073,3225.401,-10732.123,-2869.696,-596.277,0
14136.385,-9613.329,-8861.595,-3523.350,-7376.545,3219.702,-10726.468,-2871.395,-612.103,0
14136.385,-9617.732,-8860.478,-3528.312,-7368.677,3214.807,-10722.467,-2891.667,-620.216,0
14136.385,-9617.308,-8862.109,-3532.000,-7374.891,3216.729,-10727.139,-2894.618,-622.854,0
14136.385,-9614.469,-8863.719,-3531.330,-7385.799,3223.658,-10731.877,-2873.585,-603.743,0
14136.385,-9612.077,-8863.182,-3527.374,-7386.827,3225.401,-10731.899,-2867.326,-595.518,0
14136.386,-9613.619,-8862.824,-3525.965,-7376.612,3221.646,-10725.283,-2873.898,-607.677,0
14136.386,-9614.357,-8861.282,-3526.681,-7367.627,3218.629,-10719.293,-2893.635,-627.682,0
14136.443,-9619.498,-8867.987,-3531.553,-7377.909,3219.053,-10724.076,-2890.058,-632.063,0
14136.443,-9618.336,-8871.005,-3529.698,-7389.979,3225.446,-10727.184,-2881.564,-602.424,0
14136.444,-9613.955,-8870.826,-3524.334,-7390.582,3226.631,-10729.195,-2870.165,-607.945,0
14136.444,-9616.905,-8870.894,-3524.133,-7381.239,3223.926,-10719.718,-2858.676,-598.580,0
14136.444,-9619.386,-8865.663,-3528.044,-7373.081,3219.590,-10714.666,-2877.563,-615.478,0
14136.444,-9623.610,-8868.122,-3535.979,-7381.462,3220.573,-10717.907,-2880.313,-603.966,0
14136.444,-9619.431,-8868.323,-3536.024,-7391.029,3224.977,-10723.115,-2883.531,-589.125,0
14136.445,-9614.178,-8864.210,-3532.157,-7390.537,3224.999,-10724.277,-2886.661,-596.054,0
14136.445,-9616.883,-8864.411,-3531.285,-7380.144,3221.445,-10719.829,-2875.261,-612.617,0
14136.445,-9619.855,-8861.997,-3534.839,-7373.192,3220.238,-10714.354,-2881.430,-614.293,0
14136.445,-9621.442,-8863.339,-3538.974,-7380.367,3222.563,-10719.137,-2881.162,-611.030,0
14136.445,-9621.777,-8870.268,-3539.868,-7392.996,3225.737,-10730.089,-2876.669,-607.543,0
14136.446,-9620.012,-8871.899,-3535.957,-7394.650,3224.977,-10732.190,-2875.306,-611.879,0
14136.446,-9621.666,-8870.536,-3534.191,-7383.385,3221.311,-10723.830,-2882.705,-613.690,0
14136.446,-9624.259,-8868.591,-3536.918,-7374.623,3218.159,-10718.689,-2894.260,-622.027,0
14136.503,-9623.186,-8867.317,-3539.332,-7380.278,3220.752,-10723.920,-2894.439,-630.364,0
14136.504,-9621.286,-8868.546,-3538.639,-7391.945,3225.379,-10731.899,-2882.168,-616.461,0
14136.504,-9618.492,-8869.888,-3533.766,-7393.041,3227.436,-10731.072,-2875.708,-606.336,0
14136.504,-9617.710,-8867.384,-3531.822,-7382.245,3221.043,-10728.301,-2885.990,-625.804,0
14136.504,-9617.598,-8862.824,-3533.788,-7373.349,3217.556,-10725.574,-2894.350,-651.084,0
14136.504,-9617.575,-8862.444,-3536.225,-7379.853,3221.289,-10726.244,-2895.020,-629.023,0
14136.504,-9615.832,-8864.680,-3536.404,-7392.370,3226.206,-10729.150,-2885.834,-591.673,0
14136.504,-9610.222,-8862.779,-3530.212,-7393.644,3225.893,-10730.805,-2861.627,-585.906,0
14136.504,-9609.954,-8860.679,-3526.010,-7381.574,3219.612,-10727.317,-2864.845,-608.325,0
14136.504,-9614.379,-8859.784,-3528.581,-7372.946,3215.991,-10722.557,-2881.117,-621.580,0
14136.504,-9613.933,-8857.103,-3532.470,-7380.010,3218.495,-10724.232,-2892.807,-615.388,0
14136.505,-9614.066,-8860.231,-3535.599,-7392.661,3222.741,-10730.514,-2881.632,-605.889,0
14136.505,-9613.798,-8862.064,-3534.392,-7393.354,3226.027,-10729.888,-2866.455,-595.451,0
14136.505,-9615.810,-8860.724,-3533.990,-7382.692,3221.132,-10727.407,-2870.903,-617.668,0
14136.505,-9617.531,-8857.326,-3536.649,-7374.086,3216.617,-10724.881,-2893.590,-634.275,0
14136.564,-9619.453,-8860.321,-3541.433,-7382.423,3218.606,-10728.592,-2889.477,-621.177,0
14136.564,-9616.860,-8863.115,-3540.561,-7393.890,3223.591,-10734.984,-2876.871,-607.185,0
14136.564,-9613.307,-8861.640,-3536.471,-7394.158,3223.412,-10736.683,-2875.731,-610.359,0
14136.564,-9611.742,-8857.527,-3534.079,-7382.200,3217.780,-10731.877,-2888.225,-626.273,0
14136.565,-9611.652,-8853.392,-3536.359,-7372.946,3214.315,-10726.915,-2904.520,-634.343,0
14136.565,-9612.077,-8854.845,-3539.667,-7379.562,3215.030,-10732.682,-2910.264,-642.367,0
14136.565,-9610.423,-8859.494,-3540.606,-7391.074,3219.299,-10739.499,-2895.601,-626.899,0
14136.565,-9608.657,-8861.595,-3536.158,-7391.923,3221.803,-10738.471,-2870.098,-618.272,0
14136.565,-9612.457,-8861.483,-3536.292,-7382.714,3219.322,-10727.451,-2877.586,-600.971,0
14136.565,-9616.212,-8860.053,-3540.762,-7375.875,3216.058,-10719.986,-2894.216,-605.151,0
14136.566,-9617.464,-8862.064,-3543.780,-7382.916,3216.036,-10726.825,-2894.640,-624.038,0
14136.566,-9617.173,-8866.579,-3542.215,-7394.672,3222.071,-10732.392,-2884.336,-596.590,0
14136.566,-9616.302,-8867.295,-3538.102,-7395.566,3222.540,-10734.671,-2874.971,-596.702,0
14136.566,-9615.967,-8862.824,-3535.621,-7383.184,3217.109,-10728.815,-2888.672,-614.762,0
14136.566,-9617.285,-8858.152,-3536.515,-7375.226,3213.577,-10722.624,-2899.044,-625.558,0
14136.624,-9617.776,-8859.158,-3540.963,-7382.982,3215.500,-10725.864,-2891.824,-618.897,0
14136.624,-9614.178,-8860.209,-3539.578,-7393.443,3219.836,-10732.794,-2882.235,-606.045,0
14136.624,-9610.714,-8859.650,-3535.532,-7392.951,3221.400,-10733.129,-2867.997,-604.101,0
14136.625,-9611.406,-8857.684,-3534.124,-7381.730,3217.265,-10726.603,-2876.960,-611.521,0
14136.625,-9616.994,-8857.951,-3539.980,-7375.830,3212.527,-10724.300,-2888.091,-623.122,0
14136.625,-9620.615,-8861.528,-3546.708,-7384.771,3214.293,-10728.301,-2889.276,-613.533,0
14136.625,-9619.833,-8864.612,-3544.696,-7397.109,3219.679,-10735.699,-2876.714,-599.563,0
14136.625,-9618.939,-8867.496,-3539.890,-7397.846,3219.568,-10737.688,-2875.217,-599.720,0
14136.625,-9619.923,-8867.965,-3537.141,-7384.972,3215.231,-10732.771,-2879.888,-622.653,0
14136.626,-9622.918,-8865.529,-3541.053,-7376.947,3212.326,-10729.865,-2896.205,-643.708,0
14136.626,-9627.299,-8869.440,-3547.132,-7386.268,3216.193,-10732.101,-2900.206,-613.332,0
14136.626,-9628.014,-8873.866,-3545.456,-7396.751,3222.250,-10739.768,-2881.274,-611.678,0
14136.626,-9628.371,-8876.929,-3543.221,-7399.143,3223.345,-10739.521,-2863.527,-595.585,0
14136.626,-9627.812,-8873.509,-3541.701,-7387.095,3220.037,-10729.307,-2880.045,-586.711,0
14136.626,-9630.495,-8872.771,-3544.473,-7379.428,3214.650,-10727.697,-2891.846,-612.907,0
14136.684,-9629.937,-8873.195,-3545.479,-7385.173,3217.198,-10731.162,-2887.532,-614.762,0
14136.685,-9628.841,-8877.018,-3545.367,-7397.802,3220.305,-10740.572,-2886.370,-610.069,0
14136.685,-9626.941,-8876.369,-3542.260,-7398.808,3223.859,-10738.873,-2875.820,-594.467,0
14136.685,-9625.131,-8872.928,-3537.611,-7384.704,3219.881,-10732.392,-2876.468,-610.404,0
14136.685,-9626.985,-8870.491,-3539.667,-7375.875,3213.801,-10729.664,-2894.573,-631.191,0
14136.685,-9625.778,-8869.999,-3541.522,-7382.960,3213.577,-10735.521,-2896.875,-634.812,0
14136.685,-9623.901,-8873.776,-3540.583,-7394.605,3217.690,-10741.936,-2886.258,-609.443,0
14136.685,-9622.672,-8876.794,-3539.376,-7396.505,3218.897,-10741.063,-2873.250,-593.305,0
14136.685,-9622.694,-8870.759,-3538.639,-7384.994,3214.047,-10733.889,-2880.581,-611.521,0
14136.685,-9623.812,-8865.797,-3541.500,-7376.076,3210.001,-10729.933,-2902.508,-631.951,0
14136.686,-9623.588,-8867.295,-3544.294,-7383.139,3212.460,-10736.303,-2899.200,-639.863,0
14136.686,-9622.627,-8871.765,-3544.338,-7395.768,3218.115,-10741.332,-2890.796,-608.370,0
14136.686,-9619.163,-8870.647,-3540.203,-7396.394,3220.506,-10739.768,-2874.814,-593.975,0
14136.686,-9615.877,-8864.344,-3537.454,-7383.541,3214.427,-10734.806,-2881.721,-609.420,0
14136.686,-9617.598,-8861.438,-3540.896,-7375.785,3209.710,-10730.604,-2901.905,-623.994,0
14136.744,-9622.918,-8866.334,-3547.088,-7384.927,3211.253,-10736.034,-2897.926,-619.546,0
14136.744,-9620.459,-8867.652,-3547.132,-7395.410,3215.567,-10744.395,-2888.114,-610.851,0
14136.744,-9615.877,-8867.228,-3540.718,-7393.644,3217.712,-10743.567,-2876.513,-599.273,0
14136.744,-9615.810,-8863.383,-3538.013,-7381.999,3211.923,-10737.442,-2887.555,-615.813,0
14136.745,-9616.101,-8858.577,-3541.031,-7375.047,3207.252,-10734.246,-2913.371,-629.358,0
14136.745,-9616.212,-8859.114,-3544.517,-7382.916,3209.219,-10740.952,-2909.236,-627.436,0
14136.745,-9615.430,-8862.288,-3543.735,-7396.170,3214.896,-10746.585,-2878.346,-609.644,0
14136.745,-9611.451,-8859.695,-3537.477,-7395.164,3215.321,-10746.428,-2874.367,-609.219,0
14136.745,-9609.686,-8853.771,-3533.051,-7381.910,3210.716,-10740.661,-2894.193,-637.807,0
14136.746,-9614.536,-8853.570,-3537.678,-7375.338,3207.833,-10734.783,-2912.566,-633.180,0
14136.746,-9618.067,-8858.868,-3541.165,-7383.206,3210.649,-10737.420,-2909.146,-624.083,0
14136.746,-9618.380,-8865.752,-3540.248,-7395.187,3216.997,-10740.706,-2882.146,-599.049,0
14136.746,-9614.357,-8865.417,-3534.302,-7394.270,3218.204,-10739.432,-2877.563,-601.865,0
14136.746,-9614.849,-8862.399,-3530.436,-7383.072,3213.041,-10734.291,-2884.627,-621.334,0
14136.746,-9620.906,-8860.991,-3535.666,-7377.126,3211.208,-10727.407,-2895.847,-614.137,0
14136.803,-9624.214,-8861.327,-3540.360,-7385.262,3215.455,-10729.955,-2885.297,-611.231,0
14136.804,-9623.700,-8865.082,-3540.114,-7398.562,3218.517,-10740.394,-2872.221,-611.767,0
14136.804,-9618.895,-8863.182,-3535.532,-7397.466,3219.679,-10740.326,-2868.667,-606.000,0
14136.804,-9618.671,-8859.137,-3534.079,-7385.285,3215.835,-10731.788,-2882.839,-608.906,0
14136.804,-9624.013,-8858.957,-3537.745,-7379.138,3212.259,-10728.479,-2898.843,-617.780,0
14136.804,-9627.902,-8862.980,-3541.232,-7387.498,3213.130,-10733.531,-2893.948,-616.260,0
14136.805,-9628.350,-8864.791,-3541.232,-7399.277,3217.891,-10738.762,-2879.575,-601.418,0
14136.805,-9627.880,-8867.295,-3538.728,-7400.931,3216.461,-10740.326,-2877.206,-597.842,0
14136.805,-9625.757,-8863.405,-3534.973,-7387.833,3213.667,-10732.101,-2881.900,-615.545,0
14136.805,-9628.260,-8861.483,-3535.867,-7380.680,3212.438,-10725.932,-2883.353,-627.771,0
14136.805,-9631.232,-8864.054,-3539.734,-7389.867,3216.796,-10727.675,-2882.503,-604.794,0
14136.805,-9631.769,-8867.607,-3539.712,-7402.250,3222.294,-10734.738,-2858.989,-589.885,0
14136.806,-9628.931,-8868.747,-3535.554,-7401.490,3223.412,-10733.219,-2858.028,-575.692,0
14136.806,-9628.014,-8866.870,-3532.850,-7388.615,3218.450,-10726.200,-2872.110,-592.232,0
14136.806,-9628.126,-8863.316,-3535.621,-7379.250,3215.008,-10720.545,-2893.903,-606.336,0
14136.864,-9628.773,-8864.009,-3538.818,-7386.805,3218.383,-10727.340,-2877.988,-619.300,0
14136.864,-9628.729,-8867.160,-3539.578,-7398.740,3223.792,-10733.665,-2866.119,-594.869,0
14136.864,-9626.203,-8867.741,-3537.633,-7399.299,3223.501,-10734.917,-2869.763,-584.520,0
14136.864,-9626.919,-8865.976,-3536.359,-7387.564,3219.568,-10729.821,-2880.134,-602.424,0
14136.864,-9631.546,-8865.641,-3539.667,-7379.831,3215.768,-10727.362,-2893.545,-620.484,0
14136.864,-9635.077,-8870.469,-3543.690,-7387.498,3217.891,-10731.877,-2883.755,-620.239,0
14136.864,-9631.680,-8874.671,-3543.243,-7398.293,3222.339,-10737.688,-2878.927,-600.256,0
14136.864,-9628.059,-8877.777,-3537.477,-7398.383,3223.211,-10737.935,-2871.350,-595.451,0
14136.864,-9627.768,-8873.017,-3534.951,-7385.150,3218.383,-10733.240,-2880.916,-620.619,0
14136.865,-9632.037,-8870.558,-3539.868,-7378.937,3214.024,-10728.502,-2901.703,-620.976,0
14136.865,-9632.529,-8872.279,-3544.629,-7385.955,3216.282,-10732.033,-2903.335,-612.974,0
14136.865,-9633.736,-8878.806,-3544.897,-7398.673,3220.462,-10740.706,-2871.998,-610.337,0
14136.865,-9630.719,-8877.979,-3540.628,-7399.188,3221.043,-10740.482,-2871.909,-609.957,0
14136.865,-9628.506,-8871.563,-3539.086,-7388.079,3218.271,-10731.050,-2885.655,-605.621,0
14136.865,-9627.500,-8865.462,-3541.500,-7380.032,3215.947,-10724.635,-2896.317,-609.957,0
14136.924,-9627.165,-8867.295,-3546.529,-7387.185,3217.511,-10730.224,-2897.546,-615.701,0
14136.924,-9631.300,-8880.058,-3548.585,-7399.970,3221.781,-10739.320,-2877.899,-595.003,0
14136.925,-9630.450,-8883.276,-3544.785,-7399.813,3222.920,-10738.359,-2873.809,-587.583,0
14136.925,-9628.886,-8877.420,-3541.567,-7387.855,3217.198,-10731.944,-2889.052,-611.186,0
14136.925,-9632.015,-8875.587,-3543.891,-7380.434,3211.275,-10730.469,-2902.307,-632.353,0
14136.925,-9632.864,-8876.929,-3548.049,-7388.190,3212.169,-10736.481,-2895.311,-621.244,0
14136.925,-9632.618,-8882.896,-3547.982,-7400.372,3216.774,-10746.070,-2881.028,-607.565,0
14136.926,-9630.003,-8884.237,-3542.953,-7398.986,3218.495,-10745.869,-2872.981,-604.101,0
14136.926,-9626.583,-8875.521,-3540.896,-7385.374,3213.980,-10737.890,-2885.409,-625.491,0
14136.926,-9632.060,-8876.012,-3545.635,-7378.222,3209.845,-10732.392,-2908.007,-632.353,0
14136.926,-9634.295,-8880.103,-3549.032,-7387.050,3212.974,-10736.660,-2897.993,-616.215,0
14136.926,-9632.328,-8881.778,-3545.121,-7397.712,3217.109,-10745.668,-2879.888,-607.498,0
14136.927,-9628.931,-8882.940,-3539.354,-7395.566,3218.070,-10743.947,-2882.123,-601.240,0
14136.927,-9626.695,-8878.560,-3536.717,-7383.787,3212.929,-10737.644,-2892.405,-612.706,0
14136.927,-9627.410,-8874.515,-3540.092,-7376.545,3208.906,-10734.135,-2902.016,-618.674,0
14136.984,-9627.724,-8878.292,-3542.684,-7383.921,3208.906,-10741.846,-2904.117,-630.073,0
14136.985,-9628.014,-8886.025,-3543.891,-7396.617,3212.594,-10749.646,-2896.875,-614.829,0
14136.985,-9625.913,-8886.316,-3540.695,-7397.489,3214.628,-10747.591,-2873.674,-604.928,0
14136.985,-9623.454,-8877.375,-3536.649,-7384.323,3211.342,-10737.688,-2888.538,-607.766,0
14136.985,-9624.817,-8870.647,-3539.041,-7377.506,3205.262,-10736.571,-2900.653,-634.521,0
14136.985,-9626.896,-8874.402,-3544.249,-7385.530,3207.565,-10741.913,-2895.087,-633.538,0
14136.986,-9627.053,-8882.337,-3544.629,-7396.773,3212.817,-10746.875,-2884.448,-615.209,0
14136.986,-9625.376,-8878.828,-3542.014,-7398.003,3211.946,-10746.004,-2881.453,-603.072,0
14136.986,-9624.349,-8872.614,-3538.303,-7385.620,3206.291,-10738.851,-2893.299,-620.306,0
14136.986,-9626.248,-8870.223,-3541.500,-7378.624,3203.430,-10733.285,-2914.802,-622.027,0
14136.986,-9628.059,-8873.374,-3544.629,-7386.179,3208.012,-10736.571,-2902.866,-615.388,0
14136.987,-9631.165,-8882.494,-3542.438,-7398.047,3214.092,-10745.579,-2869.875,-610.069,0
14136.987,-9628.841,-8880.996,-3536.583,-7396.394,3215.164,-10745.243,-2865.918,-601.642,0
14136.987,-9629.333,-8875.654,-3534.057,-7383.250,3210.448,-10736.974,-2881.140,-604.816,0
14136.987,-9631.836,-8872.391,-3537.320,-7375.941,3206.000,-10734.336,-2900.295,-625.491,0
14137.045,-9635.591,-8877.912,-3543.958,-7386.559,3206.984,-10738.359,-2906.979,-614.338,0
14137.045,-9635.971,-8885.354,-3542.997,-7399.188,3211.946,-10745.422,-2883.062,-605.218,0
14137.045,-9631.680,-8885.467,-3539.600,-7397.734,3212.750,-10745.713,-2877.273,-603.184,0
14137.045,-9630.875,-8878.270,-3539.578,-7384.659,3207.945,-10738.068,-2896.808,-615.388,0
14137.045,-9635.814,-8877.219,-3542.662,-7377.439,3204.815,-10736.034,-2896.607,-639.617,0
14137.045,-9639.860,-8881.354,-3548.205,-7386.715,3207.945,-10739.253,-2891.936,-618.473,0
14137.045,-9638.341,-8884.841,-3547.602,-7398.226,3212.929,-10744.305,-2885.186,-598.848,0
14137.045,-9634.876,-8886.182,-3543.869,-7397.578,3212.214,-10746.183,-2885.096,-603.363,0
14137.045,-9634.764,-8882.673,-3540.986,-7384.905,3208.794,-10739.768,-2887.153,-615.232,0
14137.046,-9637.603,-8880.438,-3544.473,-7377.663,3203.407,-10739.209,-2906.375,-644.200,0
14137.046,-9640.330,-8884.081,-3550.664,-7386.782,3205.553,-10744.461,-2906.666,-632.934,0
14137.046,-9636.530,-8883.857,-3549.211,-7398.584,3210.202,-10751.100,-2898.217,-618.048,0
14137.046,-9633.848,-8883.231,-3544.920,-7398.450,3211.677,-10748.909,-2898.060,-604.525,0
14137.046,-9635.636,-8884.349,-3544.338,-7386.223,3207.095,-10743.120,-2902.374,-619.255,0
14137.046,-9640.330,-8885.869,-3548.272,-7378.579,3205.285,-10739.700,-2902.307,-628.576,0
14137.104,-9640.263,-8887.545,-3551.044,-7386.872,3206.156,-10745.758,-2908.901,-632.756,0
14137.104,-9640.084,-8891.948,-3549.815,-7400.037,3211.588,-10751.323,-2883.979,-609.689,0
14137.104,-9633.759,-8884.975,-3545.411,-7398.785,3211.633,-10750.563,-2883.755,-617.109,0
14137.105,-9632.686,-8877.890,-3543.221,-7386.402,3208.146,-10741.019,-2886.929,-632.130,0
14137.105,-9636.172,-8873.732,-3545.300,-7380.233,3207.833,-10729.374,-2889.969,-613.868,0
14137.105,-9640.308,-8879.141,-3549.368,-7390.515,3209.174,-10734.045,-2891.511,-608.571,0
14137.105,-9639.123,-8882.337,-3547.982,-7401.602,3215.187,-10740.975,-2878.167,-599.720,0
14137.105,-9637.559,-8884.506,-3545.568,-7402.652,3215.164,-10742.896,-2872.445,-597.619,0
14137.105,-9639.212,-8882.784,-3543.668,-7390.873,3210.828,-10736.638,-2883.844,-609.398,0
14137.106,-9639.458,-8879.320,-3544.785,-7383.049,3207.990,-10734.470,-2901.189,-634.477,0
14137.106,-9638.273,-8881.398,-3548.027,-7389.822,3208.794,-10743.746,-2907.336,-649.475,0
14137.106,-9637.715,-8885.512,-3547.199,-7402.026,3214.471,-10750.005,-2894.037,-626.788,0
14137.106,-9635.591,-8884.461,-3545.009,-7402.316,3215.880,-10747.144,-2891.913,-611.901,0
14137.106,-9636.172,-8882.561,-3546.305,-7390.649,3209.666,-10741.936,-2908.744,-627.592,0
14137.107,-9640.956,-8883.455,-3549.725,-7383.832,3205.978,-10738.918,-2921.552,-638.522,0
14137.164,-9641.895,-8884.751,-3552.743,-7391.319,3210.649,-10741.488,-2902.620,-632.554,0
14137.164,-9639.614,-8888.774,-3552.944,-7403.703,3213.533,-10748.932,-2887.175,-620.775,0
14137.164,-9635.703,-8887.702,-3547.803,-7402.250,3215.209,-10746.696,-2870.992,-600.614,0
14137.165,-9633.981,-8880.146,-3546.328,-7389.151,3211.208,-10738.247,-2890.282,-606.380,0
14137.165,-9636.642,-8877.375,-3550.329,-7382.625,3206.849,-10734.671,-2904.274,-626.497,0
14137.165,-9636.687,-8879.097,-3552.162,-7391.186,3209.599,-10739.029,-2885.968,-624.374,0
14137.165,-9633.579,-8882.382,-3550.642,-7402.719,3213.823,-10746.249,-2868.556,-603.296,0
14137.165,-9630.518,-8879.856,-3546.663,-7401.713,3214.650,-10743.746,-2869.919,-592.344,0
14137.166,-9630.003,-8873.934,-3544.562,-7389.732,3209.666,-10735.923,-2886.415,-616.707,0
14137.166,-9633.289,-8872.592,-3548.921,-7384.547,3206.492,-10730.938,-2899.446,-623.524,0
14137.166,-9634.317,-8873.218,-3553.391,-7393.331,3209.219,-10737.621,-2892.807,-620.999,0
14137.166,-9633.423,-8878.448,-3551.670,-7404.284,3213.779,-10744.685,-2877.720,-605.777,0
14137.166,-9632.954,-8882.181,-3545.858,-7404.396,3214.024,-10743.835,-2871.909,-598.736,0
14137.166,-9636.038,-8881.332,-3544.629,-7393.331,3210.023,-10735.476,-2879.665,-604.928,0
14137.167,-9638.362,-8877.309,-3546.171,-7385.441,3207.073,-10731.520,-2890.505,-625.536,0
14137.224,-9640.934,-8882.449,-3549.927,-7394.449,3210.314,-10734.716,-2888.047,-612.885,0
14137.224,-9639.659,-8888.417,-3549.077,-7405.669,3215.768,-10741.712,-2883.688,-595.205,0
14137.225,-9640.330,-8890.317,-3546.305,-7406.161,3217.109,-10741.846,-2878.078,-591.986,0
14137.225,-9642.923,-8885.690,-3545.791,-7394.918,3212.460,-10735.453,-2889.879,-615.813,0
14137.225,-9646.990,-8884.685,-3550.061,-7389.777,3210.403,-10731.050,-2892.472,-627.391,0
14137.225,-9650.925,-8889.199,-3554.128,-7399.143,3216.215,-10731.832,-2879.821,-602.514,0
14137.225,-9650.679,-8893.356,-3553.749,-7409.760,3220.305,-10740.460,-2870.322,-603.207,0
14137.226,-9650.790,-8894.563,-3551.893,-7409.179,3220.953,-10738.136,-2873.853,-595.808,0
14137.226,-9653.674,-8893.446,-3551.402,-7397.578,3217.601,-10729.463,-2881.408,-597.395,0
14137.226,-9656.602,-8892.798,-3554.643,-7391.096,3213.711,-10726.960,-2885.700,-606.045,0
14137.226,-9655.887,-8895.748,-3557.794,-7398.785,3213.488,-10734.738,-2886.080,-614.002,0
14137.226,-9652.757,-8896.039,-3556.654,-7410.453,3215.321,-10745.780,-2876.848,-616.126,0
14137.226,-9649.561,-8895.101,-3552.184,-7408.888,3215.365,-10748.663,-2873.227,-617.176,0
14137.227,-9649.605,-8894.184,-3551.334,-7396.192,3212.370,-10739.029,-2884.806,-599.317,0
14137.227,-9646.946,-8888.551,-3554.754,-7388.392,3206.000,-10736.594,-2907.560,-622.854,0
14137.284,-9643.325,-8886.875,-3555.179,-7394.985,3208.481,-10743.165,-2906.219,-628.352,0
14137.284,-9642.073,-8887.970,-3553.525,-7406.720,3211.946,-10751.882,-2886.281,-621.423,0
14137.285,-9640.173,-8887.545,-3549.524,-7405.804,3212.169,-10751.613,-2877.251,-621.066,0
14137.285,-9641.358,-8885.198,-3549.189,-7393.823,3209.845,-10740.773,-2879.329,-613.041,0
14137.285,-9644.018,-8882.940,-3552.407,-7387.229,3205.084,-10738.873,-2897.412,-632.085,0
14137.285,-9644.354,-8882.583,-3555.425,-7395.231,3207.788,-10743.231,-2898.418,-629.179,0
14137.285,-9642.162,-8884.572,-3552.519,-7405.938,3212.750,-10748.194,-2885.700,-603.207,0
14137.285,-9639.234,-8884.416,-3547.512,-7406.228,3211.901,-10747.858,-2882.794,-596.367,0
14137.285,-9640.486,-8883.566,-3547.177,-7393.376,3207.207,-10741.802,-2889.656,-618.182,0
14137.285,-9647.817,-8884.975,-3553.816,-7386.670,3202.759,-10739.812,-2906.308,-644.669,0
14137.285,-9651.416,-8888.484,-3558.666,-7396.930,3202.849,-10747.434,-2913.997,-644.602,0
14137.285,-9648.756,-8890.295,-3557.213,-7407.726,3207.297,-10753.715,-2898.127,-625.469,0
14137.286,-9646.119,-8889.222,-3552.720,-7406.742,3209.979,-10752.105,-2885.767,-626.184,0
14137.286,-9648.398,-8887.813,-3552.765,-7395.187,3208.503,-10742.673,-2882.146,-632.510,0
14137.286,-9651.506,-8885.980,-3556.542,-7389.487,3206.872,-10734.067,-2884.358,-621.110,0
14137.345,-9652.512,-8887.165,-3559.314,-7398.651,3210.001,-10736.861,-2889.209,-614.271,0
14137.345,-9648.488,-8886.159,-3555.358,-7408.418,3215.231,-10746.160,-2888.494,-619.188,0
14137.345,-9646.879,-8887.881,-3552.743,-7409.357,3216.818,-10745.467,-2887.465,-598.893,0
14137.345,-9649.852,-8888.752,-3553.615,-7397.958,3213.756,-10740.035,-2889.455,-617.512,0
14137.346,-9650.611,-8880.326,-3556.386,-7390.939,3209.845,-10737.442,-2903.045,-638.500,0
14137.346,-9651.237,-8880.146,-3561.125,-7400.439,3210.359,-10743.567,-2897.166,-635.482,0
14137.346,-9648.600,-8881.957,-3559.605,-7410.453,3216.058,-10748.775,-2889.477,-610.136,0
14137.346,-9647.013,-8882.024,-3557.951,-7410.341,3214.963,-10749.490,-2879.262,-606.068,0
14137.346,-9644.420,-8875.609,-3556.855,-7396.908,3207.900,-10742.718,-2892.495,-627.548,0
14137.347,-9646.097,-8873.553,-3561.102,-7388.525,3203.251,-10738.538,-2905.794,-644.826,0
14137.347,-9648.019,-8877.397,-3564.254,-7397.086,3205.218,-10743.075,-2897.725,-640.020,0
14137.347,-9643.414,-8878.314,-3563.136,-7408.083,3210.604,-10746.160,-2884.314,-615.701,0
14137.347,-9640.106,-8880.393,-3560.968,-7407.524,3211.946,-10741.108,-2879.285,-591.606,0
14137.347,-9638.497,-8877.644,-3556.855,-7394.672,3206.559,-10735.476,-2890.907,-618.182,0
14137.348,-9642.319,-8873.106,-3556.542,-7388.079,3202.759,-10735.677,-2908.096,-645.205,0
14137.405,-9649.807,-8878.604,-3560.767,-7397.846,3207.587,-10739.298,-2901.815,-617.467,0
14137.405,-9650.835,-8881.935,-3558.934,-7408.910,3213.823,-10746.853,-2889.365,-606.559,0
14137.405,-9648.689,-8881.689,-3553.033,-7407.211,3214.270,-10747.479,-2881.676,-615.366,0
14137.406,-9648.936,-8879.723,-3551.893,-7395.365,3209.129,-10738.136,-2892.137,-618.272,0
14137.406,-9652.646,-8879.387,-3557.325,-7390.403,3204.011,-10733.889,-2910.376,-621.311,0
14137.406,-9654.479,-8883.724,-3561.907,-7399.232,3204.614,-10742.650,-2906.442,-634.141,0
14137.406,-9652.690,-8886.405,-3562.913,-7409.872,3211.074,-10746.629,-2880.805,-604.101,0
14137.406,-9651.170,-8887.411,-3561.840,-7409.625,3211.141,-10745.288,-2882.637,-598.535,0
14137.407,-9651.841,-8881.622,-3561.460,-7397.869,3206.514,-10738.091,-2891.690,-618.897,0
14137.407,-9651.752,-8873.396,-3565.148,-7391.521,3202.200,-10733.889,-2910.667,-635.617,0
14137.407,-9650.634,-8871.340,-3569.171,-7400.864,3203.586,-10739.320,-2917.886,-636.667,0
14137.407,-9649.650,-8874.917,-3567.204,-7412.867,3209.353,-10747.300,-2901.055,-619.412,0
14137.407,-9648.354,-8876.213,-3560.812,-7410.453,3210.850,-10746.540,-2895.825,-618.026,0
14137.407,-9650.522,-8876.548,-3558.152,-7398.606,3206.268,-10742.003,-2902.776,-629.939,0
14137.408,-9652.020,-8875.453,-3559.202,-7392.013,3201.977,-10742.204,-2909.236,-651.889,0
14137.465,-9650.969,-8878.604,-3560.275,-7399.411,3203.139,-10750.742,-2916.769,-658.572,0
14137.465,-9650.790,-8884.461,-3559.113,-7410.386,3208.816,-10755.905,-2897.770,-622.228,0
14137.465,-9648.957,-8885.422,-3554.687,-7409.312,3211.275,-10752.888,-2880.380,-606.425,0
14137.466,-9646.387,-8877.800,-3551.156,-7395.320,3206.268,-10745.981,-2888.628,-626.542,0
14137.466,-9643.728,-8871.721,-3553.167,-7387.699,3202.245,-10740.281,-2908.208,-634.700,0
14137.466,-9642.185,-8870.894,-3557.302,-7397.734,3204.324,-10745.713,-2906.241,-639.416,0
14137.466,-9640.419,-8873.509,-3556.431,-7410.207,3208.906,-10751.435,-2883.062,-616.819,0
14137.466,-9638.899,-8872.771,-3553.234,-7408.978,3210.292,-10747.702,-2874.524,-599.697,0
14137.466,-9637.894,-8866.624,-3552.273,-7395.946,3206.201,-10738.538,-2897.054,-608.772,0
14137.466,-9640.665,-8866.177,-3555.537,-7389.643,3201.686,-10735.677,-2913.550,-630.342,0
14137.466,-9644.354,-8872.592,-3559.448,-7398.964,3204.436,-10741.734,-2902.978,-620.373,0
14137.466,-9642.654,-8876.638,-3557.370,-7409.581,3209.912,-10748.283,-2887.778,-602.044,0
14137.466,-9641.179,-8877.375,-3553.771,-7408.955,3208.749,-10750.049,-2884.314,-608.213,0
14137.466,-9642.141,-8875.788,-3551.603,-7396.617,3203.519,-10745.937,-2893.880,-634.834,0
14137.467,-9648.511,-8882.718,-3554.307,-7391.499,3201.083,-10742.584,-2896.674,-633.359,0
14137.525,-9650.075,-8882.673,-3556.811,-7400.148,3203.832,-10746.764,-2895.981,-617.735,0
14137.525,-9648.577,-8883.343,-3555.425,-7411.235,3205.620,-10754.140,-2893.322,-611.834,0
14137.525,-9646.432,-8878.225,-3551.044,-7409.581,3205.777,-10752.352,-2884.515,-617.288,0
14137.525,-9650.634,-8876.303,-3550.619,-7399.366,3202.580,-10742.092,-2883.643,-624.999,0
14137.525,-9652.668,-8873.911,-3553.547,-7393.219,3200.993,-10735.141,-2900.318,-632.644,0
14137.525,-9652.914,-8875.363,-3558.442,-7401.803,3205.262,-10736.280,-2899.714,-611.231,0
14137.526,-9654.791,-8881.041,-3559.761,-7412.732,3210.515,-10741.779,-2881.810,-604.816,0
14137.526,-9652.869,-8881.778,-3557.660,-7410.833,3210.403,-10739.633,-2885.610,-594.422,0
14137.526,-9650.030,-8873.129,-3554.687,-7397.131,3204.413,-10734.984,-2893.143,-622.630,0
14137.526,-9651.729,-8869.105,-3558.241,-7390.783,3199.898,-10732.392,-2898.999,-640.713,0
14137.526,-9654.054,-8872.727,-3564.276,-7401.020,3202.089,-10738.516,-2901.189,-624.999,0
14137.526,-9649.673,-8874.000,-3562.577,-7411.190,3207.185,-10746.406,-2892.696,-609.107,0
14137.527,-9646.879,-8874.291,-3557.258,-7410.028,3209.129,-10746.048,-2870.389,-607.476,0
14137.527,-9646.544,-8869.239,-3556.051,-7398.137,3205.151,-10735.096,-2892.718,-596.479,0
14137.527,-9648.801,-8866.199,-3559.783,-7392.214,3201.351,-10731.564,-2909.750,-611.633,0
14137.584,-9649.382,-8868.479,-3563.114,-7401.221,3204.055,-10741.466,-2880.849,-636.801,0
14137.585,-9647.482,-8872.503,-3562.958,-7412.643,3210.113,-10746.764,-2871.216,-610.448,0
14137.585,-9644.756,-8873.330,-3559.694,-7411.660,3211.432,-10743.701,-2870.188,-593.416,0
14137.585,-9644.375,-8867.340,-3558.934,-7399.724,3207.095,-10737.085,-2886.303,-613.667,0
14137.585,-9645.806,-8862.937,-3563.807,-7393.555,3204.592,-10732.302,-2902.307,-626.273,0
14137.585,-9644.018,-8861.371,-3566.377,-7402.250,3206.581,-10738.985,-2896.183,-624.754,0
14137.586,-9641.671,-8862.847,-3564.142,-7412.442,3210.761,-10746.115,-2882.570,-610.091,0
14137.586,-9641.313,-8864.009,-3560.722,-7410.855,3213.332,-10743.165,-2873.741,-598.244,0
14137.586,-9643.615,-8864.881,-3560.655,-7399.344,3208.213,-10736.817,-2893.858,-607.744,0
14137.586,-9648.511,-8866.312,-3565.148,-7393.756,3202.983,-10733.464,-2912.544,-620.127,0
14137.586,-9649.137,-8867.854,-3567.942,-7401.691,3203.005,-10742.338,-2901.860,-641.517,0
14137.586,-9648.332,-8871.742,-3567.361,-7412.822,3206.514,-10750.362,-2886.884,-621.133,0
14137.587,-9644.442,-8868.524,-3563.695,-7411.548,3207.341,-10745.803,-2886.191,-599.966,0
14137.587,-9642.543,-8862.601,-3561.818,-7399.009,3201.753,-10736.996,-2910.264,-608.571,0
14137.587,-9643.861,-8860.812,-3562.108,-7390.626,3199.228,-10733.956,-2914.891,-633.225,0
14137.645,-9648.197,-8866.624,-3566.154,-7400.126,3202.536,-10740.103,-2896.115,-626.877,0
14137.645,-9649.985,-8870.737,-3567.517,-7412.419,3206.671,-10747.680,-2885.476,-615.612,0
14137.645,-9649.047,-8871.050,-3565.260,-7412.017,3207.207,-10747.523,-2879.620,-618.473,0
14137.645,-9648.354,-8866.378,-3565.595,-7400.126,3202.357,-10739.745,-2893.277,-620.283,0
14137.645,-9648.220,-8861.908,-3569.372,-7392.035,3197.998,-10736.861,-2912.477,-634.588,0
14137.645,-9648.220,-8865.909,-3571.898,-7399.835,3199.585,-10742.562,-2904.855,-624.038,0
14137.645,-9645.068,-8867.429,-3569.641,-7410.520,3201.507,-10751.145,-2900.161,-617.288,0
14137.645,-9642.453,-8867.094,-3566.198,-7409.179,3202.066,-10749.691,-2896.808,-613.734,0
14137.645,-9643.906,-8865.887,-3566.690,-7396.527,3197.372,-10743.902,-2905.146,-624.485,0
14137.646,-9647.080,-8864.702,-3570.848,-7389.912,3193.930,-10740.997,-2919.428,-627.481,0
14137.646,-9647.996,-8868.971,-3574.424,-7399.903,3193.640,-10748.462,-2933.063,-628.866,0
14137.646,-9646.208,-8874.380,-3571.764,-7411.302,3197.506,-10760.376,-2909.482,-630.543,0
14137.646,-9642.744,-8872.793,-3566.578,-7408.955,3200.501,-10760.286,-2884.001,-629.649,0
14137.646,-9644.532,-8870.089,-3567.361,-7397.556,3195.718,-10752.687,-2900.049,-640.690,0
14137.646,-9650.902,-8872.838,-3572.524,-7392.437,3193.058,-10746.965,-2918.400,-633.895,0
14137.705,-9652.042,-8875.297,-3573.731,-7400.417,3196.277,-10754.363,-2914.980,-639.752,0
14137.705,-9652.020,-8881.555,-3570.490,-7411.794,3203.251,-10757.358,-2896.987,-609.689,0
14137.705,-9647.772,-8880.460,-3564.902,-7409.983,3204.994,-10754.050,-2900.944,-612.058,0
14137.705,-9647.191,-8875.252,-3562.220,-7398.249,3201.977,-10747.591,-2899.960,-633.873,0
14137.706,-9644.822,-8867.205,-3563.695,-7391.521,3197.328,-10743.724,-2911.225,-644.445,0
14137.706,-9647.594,-8868.323,-3568.188,-7400.931,3200.501,-10746.384,-2912.365,-630.744,0
14137.706,-9651.170,-8874.402,-3569.171,-7413.224,3205.777,-10752.955,-2903.313,-621.110,0
14137.706,-9651.081,-8874.067,-3566.087,-7412.419,3206.872,-10750.272,-2899.781,-616.148,0
14137.706,-9648.153,-8866.267,-3563.874,-7399.858,3202.334,-10741.063,-2914.310,-631.750,0
14137.707,-9651.841,-8864.456,-3569.395,-7393.935,3201.753,-10734.962,-2910.577,-640.087,0
14137.707,-9654.523,-8866.915,-3574.357,-7403.255,3203.363,-10740.170,-2907.716,-642.479,0
14137.707,-9653.897,-8869.284,-3572.077,-7414.208,3209.129,-10745.803,-2892.383,-628.464,0
14137.707,-9653.294,-8869.351,-3569.551,-7414.208,3209.845,-10743.769,-2889.879,-617.288,0
14137.708,-9653.025,-8864.725,-3567.406,-7400.461,3206.335,-10734.515,-2903.983,-616.975,0
14137.708,-9655.596,-8864.099,-3572.837,-7394.940,3202.737,-10731.207,-2907.292,-630.476,0
14137.708,-9652.668,-8861.126,-3576.592,-7403.367,3202.692,-10737.376,-2913.594,-635.058,0
14137.766,-9646.879,-8859.226,-3573.195,-7413.537,3207.118,-10744.573,-2905.995,-622.384,0
14137.767,-9647.438,-8863.808,-3570.602,-7414.677,3210.493,-10742.293,-2875.641,-593.752,0
14137.767,-9646.544,-8856.588,-3569.618,-7401.825,3207.118,-10734.447,-2887.600,-598.334,0
14137.767,-9648.466,-8852.989,-3573.619,-7395.812,3203.564,-10733.062,-2903.849,-621.580,0
14137.767,-9649.919,-8855.582,-3578.157,-7405.222,3205.084,-10740.997,-2908.901,-624.016,0
14137.767,-9649.114,-8859.583,-3575.653,-7416.890,3211.365,-10747.591,-2890.528,-607.878,0
14137.768,-9646.052,-8860.410,-3571.697,-7415.258,3212.326,-10747.792,-2878.905,-607.699,0
14137.768,-9642.006,-8855.314,-3569.171,-7401.042,3206.090,-10742.628,-2898.194,-622.764,0
14137.768,-9642.811,-8849.637,-3571.362,-7392.884,3202.513,-10740.103,-2916.366,-640.802,0
14137.768,-9644.756,-8852.453,-3575.966,-7402.339,3203.921,-10744.953,-2908.767,-636.377,0
14137.768,-9645.538,-8860.143,-3575.117,-7414.588,3207.386,-10751.212,-2895.713,-617.355,0
14137.768,-9643.526,-8861.550,-3570.132,-7412.174,3208.548,-10750.272,-2889.142,-614.718,0
14137.769,-9641.782,-8856.924,-3568.300,-7399.210,3204.480,-10743.231,-2901.569,-627.726,0
14137.769,-9646.208,-8857.236,-3572.301,-7394.538,3200.882,-10739.275,-2910.510,-632.823,0
14137.769,-9647.817,-8860.611,-3574.245,-7403.166,3204.592,-10743.769,-2902.687,-624.642,0
14137.826,-9649.919,-8867.429,-3573.485,-7416.331,3209.666,-10751.122,-2890.617,-611.186,0
14137.826,-9650.925,-8869.194,-3571.228,-7415.638,3211.700,-10749.065,-2887.488,-607.275,0
14137.827,-9652.847,-8865.082,-3572.680,-7404.060,3205.486,-10743.791,-2906.867,-624.709,0
14137.827,-9657.004,-8866.714,-3578.425,-7398.405,3201.060,-10742.003,-2920.099,-633.247,0
14137.827,-9656.579,-8868.256,-3581.241,-7405.468,3201.396,-10750.675,-2926.067,-663.556,0
14137.827,-9659.820,-8876.973,-3581.845,-7417.225,3206.984,-10757.492,-2905.526,-639.774,0
14137.827,-9661.050,-8881.220,-3580.727,-7415.772,3207.788,-10755.146,-2895.758,-602.312,0
14137.827,-9659.999,-8878.091,-3579.386,-7402.540,3201.686,-10748.977,-2919.987,-612.639,0
14137.827,-9662.592,-8876.079,-3582.046,-7396.505,3197.886,-10747.680,-2928.235,-641.003,0
14137.827,-9662.682,-8875.408,-3584.706,-7405.423,3200.569,-10753.111,-2923.362,-640.266,0
14137.827,-9658.233,-8876.548,-3582.672,-7416.264,3204.033,-10762.432,-2905.190,-642.814,0
14137.827,-9655.708,-8876.839,-3577.598,-7413.783,3202.983,-10761.896,-2897.792,-636.846,0
14137.827,-9657.250,-8873.688,-3576.704,-7400.596,3199.496,-10751.055,-2908.834,-630.744,0
14137.828,-9660.245,-8871.631,-3580.772,-7395.298,3195.003,-10747.099,-2922.759,-643.820,0
14137.828,-9659.933,-8874.067,-3582.292,-7404.798,3199.898,-10749.289,-2915.115,-633.873,0
14137.886,-9657.205,-8875.521,-3579.833,-7414.006,3205.240,-10754.027,-2899.491,-618.182,0
14137.886,-9653.271,-8874.112,-3575.989,-7411.481,3204.547,-10753.916,-2901.167,-622.988,0
14137.886,-9651.506,-8869.038,-3572.949,-7398.271,3200.748,-10745.579,-2912.678,-637.159,0
14137.886,-9654.725,-8865.551,-3578.246,-7393.756,3196.523,-10743.165,-2927.140,-642.590,0
14137.887,-9655.887,-8869.597,-3581.398,-7403.770,3198.021,-10749.558,-2922.669,-638.746,0
14137.887,-9655.261,-8873.911,-3579.632,-7414.319,3203.296,-10754.811,-2892.986,-619.523,0
14137.887,-9652.646,-8873.464,-3575.854,-7411.682,3203.608,-10756.218,-2883.196,-623.524,0
14137.887,-9650.187,-8867.607,-3572.792,-7397.556,3199.630,-10747.010,-2899.155,-622.697,0
14137.887,-9653.830,-8864.858,-3575.966,-7392.638,3196.903,-10743.231,-2906.934,-638.276,0
14137.888,-9655.462,-8867.519,-3580.347,-7402.697,3198.825,-10746.942,-2912.924,-629.068,0
14137.888,-9654.948,-8872.011,-3577.978,-7414.051,3203.363,-10753.805,-2899.334,-608.727,0
14137.888,-9653.540,-8873.620,-3573.619,-7413.157,3204.368,-10753.380,-2878.502,-607.990,0
14137.888,-9653.249,-8869.083,-3571.496,-7401.020,3200.189,-10745.154,-2895.378,-621.267,0
14137.888,-9655.082,-8868.323,-3574.692,-7395.008,3196.769,-10741.667,-2920.926,-639.081,0
14137.889,-9656.043,-8870.871,-3578.715,-7404.038,3201.507,-10746.875,-2916.836,-636.958,0
14137.946,-9656.490,-8873.643,-3577.710,-7415.683,3206.492,-10754.609,-2901.838,-622.809,0
14137.946,-9655.887,-8875.878,-3573.619,-7414.163,3206.268,-10754.117,-2900.005,-622.429,0
14137.946,-9655.417,-8870.871,-3572.345,-7401.266,3201.597,-10746.809,-2918.244,-639.908,0
14137.947,-9658.904,-8870.134,-3576.592,-7396.684,3198.445,-10742.941,-2928.302,-648.446,0
14137.947,-9661.542,-8876.124,-3579.922,-7406.497,3204.749,-10746.518,-2903.402,-637.494,0
14137.947,-9661.273,-8878.939,-3580.057,-7418.521,3210.448,-10751.457,-2884.895,-620.350,0
14137.947,-9658.726,-8879.477,-3575.854,-7416.733,3210.314,-10747.725,-2889.008,-605.241,0
14137.947,-9656.893,-8873.173,-3573.508,-7403.546,3205.419,-10740.550,-2894.707,-629.492,0
14137.947,-9658.658,-8868.323,-3576.637,-7397.779,3202.714,-10735.387,-2905.190,-638.746,0
14137.948,-9658.211,-8870.759,-3578.760,-7406.742,3206.425,-10739.343,-2905.749,-630.409,0
14137.948,-9659.016,-8876.950,-3578.090,-7419.125,3211.700,-10745.534,-2878.458,-612.572,0
14137.948,-9661.229,-8879.163,-3576.503,-7419.706,3211.588,-10743.165,-2875.530,-590.399,0
14137.948,-9661.027,-8874.581,-3574.491,-7406.452,3206.827,-10736.571,-2894.193,-601.061,0
14137.948,-9661.721,-8871.899,-3574.603,-7399.567,3203.139,-10735.252,-2900.452,-626.654,0
14137.949,-9661.140,-8871.832,-3577.106,-7408.866,3205.218,-10742.003,-2901.525,-625.894,0
14138.006,-9660.781,-8875.677,-3577.486,-7420.734,3209.599,-10750.116,-2890.483,-607.699,0
14138.006,-9657.340,-8874.402,-3572.368,-7418.208,3209.018,-10752.352,-2886.706,-612.237,0
14138.006,-9654.366,-8869.172,-3569.551,-7403.412,3203.854,-10745.623,-2904.140,-630.945,0
14138.006,-9656.154,-8867.741,-3575.273,-7397.578,3199.406,-10744.015,-2918.802,-640.713,0
14138.006,-9657.026,-8872.234,-3577.866,-7407.301,3201.887,-10751.592,-2912.790,-641.808,0
14138.007,-9659.775,-8880.058,-3575.989,-7419.214,3207.565,-10757.001,-2881.900,-620.775,0
14138.007,-9657.965,-8879.208,-3572.412,-7416.733,3207.028,-10754.989,-2887.376,-610.337,0
14138.007,-9658.256,-8875.967,-3573.061,-7403.054,3200.814,-10749.603,-2907.805,-626.318,0
14138.007,-9658.882,-8873.620,-3576.436,-7395.723,3197.328,-10749.334,-2921.977,-654.906,0
14138.007,-9661.430,-8877.935,-3580.504,-7406.072,3199.607,-10755.973,-2919.920,-663.377,0
14138.007,-9665.833,-8886.025,-3582.783,-7421.025,3204.659,-10758.789,-2902.486,-632.756,0
14138.007,-9667.397,-8887.232,-3579.766,-7419.595,3206.156,-10754.229,-2899.222,-612.080,0
14138.007,-9667.822,-8882.069,-3577.598,-7406.005,3201.642,-10746.585,-2913.505,-627.592,0
14138.007,-9671.801,-8877.979,-3579.855,-7399.970,3198.490,-10743.902,-2917.305,-644.088,0
14138.007,-9674.081,-8878.918,-3582.493,-7411.212,3202.849,-10748.037,-2904.162,-615.992,0
14138.066,-9672.293,-8881.712,-3578.224,-7422.143,3207.498,-10756.688,-2891.980,-606.760,0
14138.066,-9676.719,-8893.111,-3573.955,-7421.025,3207.677,-10757.090,-2892.964,-614.494,0
14138.067,-9682.775,-8895.503,-3574.647,-7409.625,3203.608,-10750.272,-2900.250,-627.324,0
14138.067,-9685.078,-8892.932,-3575.206,-7401.780,3202.245,-10745.243,-2897.345,-640.288,0
14138.067,-9692.007,-8900.062,-3579.431,-7412.442,3203.921,-10750.787,-2897.434,-632.443,0
14138.067,-9695.538,-8909.159,-3578.872,-7424.624,3209.219,-10756.844,-2887.890,-616.372,0
14138.067,-9697.796,-8914.278,-3573.843,-7423.819,3211.007,-10754.520,-2873.875,-612.371,0
14138.068,-9699.606,-8912.959,-3570.803,-7411.749,3206.581,-10745.914,-2891.422,-627.525,0
14138.068,-9705.217,-8916.401,-3573.955,-7406.899,3202.200,-10742.919,-2909.393,-645.675,0
14138.068,-9709.844,-8925.029,-3577.486,-7417.359,3206.335,-10746.897,-2895.355,-620.596,0
14138.068,-9708.391,-8931.131,-3575.072,-7429.027,3208.884,-10756.643,-2879.799,-615.634,0
14138.068,-9707.563,-8938.552,-3572.680,-7427.194,3208.191,-10756.285,-2878.681,-616.528,0
14138.068,-9703.652,-8933.947,-3572.077,-7412.867,3204.324,-10749.267,-2893.009,-637.695,0
14138.069,-9702.355,-8927.220,-3575.698,-7406.943,3201.150,-10745.690,-2905.704,-646.792,0
14138.069,-9701.641,-8925.186,-3579.744,-7416.443,3203.318,-10749.781,-2899.692,-630.699,0
14138.127,-9701.551,-8930.662,-3577.710,-7427.462,3210.314,-10754.185,-2874.256,-595.898,0
14138.127,-9698.802,-8934.082,-3573.083,-7425.607,3209.666,-10754.251,-2870.992,-597.440,0
14138.127,-9698.779,-8934.082,-3572.837,-7412.375,3204.100,-10748.597,-2893.925,-620.216,0
14138.127,-9697.394,-8925.141,-3574.759,-7406.049,3199.406,-10746.965,-2924.368,-642.233,0
14138.127,-9697.662,-8921.944,-3576.592,-7416.331,3203.899,-10750.720,-2911.740,-628.889,0
14138.128,-9697.863,-8929.455,-3573.865,-7428.423,3208.437,-10757.648,-2874.635,-609.890,0
14138.128,-9695.472,-8933.858,-3568.925,-7426.546,3208.772,-10755.860,-2864.130,-608.034,0
14138.128,-9694.421,-8927.778,-3568.613,-7414.051,3204.301,-10748.529,-2887.175,-621.535,0
14138.128,-9692.163,-8918.078,-3572.457,-7407.614,3200.479,-10746.764,-2913.416,-635.885,0
14138.128,-9692.856,-8919.509,-3576.078,-7416.801,3205.330,-10752.776,-2896.317,-628.576,0
14138.128,-9691.806,-8926.639,-3574.916,-7428.334,3211.119,-10761.068,-2870.948,-617.802,0
14138.129,-9690.420,-8927.488,-3571.518,-7427.239,3208.705,-10762.008,-2876.714,-617.042,0
14138.129,-9692.767,-8930.886,-3569.886,-7414.186,3203.206,-10755.593,-2886.638,-632.487,0
14138.129,-9693.125,-8925.856,-3574.044,-7408.307,3198.043,-10753.402,-2905.771,-648.178,0
14138.129,-9689.906,-8919.441,-3576.257,-7416.532,3198.669,-10762.253,-2901.346,-664.048,0
14138.187,-9690.264,-8924.023,-3575.832,-7428.423,3204.078,-10766.634,-2891.220,-625.759,0
14138.187,-9688.274,-8924.202,-3570.848,-7425.674,3207.632,-10760.711,-2876.021,-604.279,0
14138.187,-9688.521,-8919.195,-3570.557,-7412.218,3204.033,-10753.357,-2882.816,-625.536,0
14138.187,-9689.839,-8916.155,-3575.832,-7407.458,3197.953,-10751.994,-2904.073,-633.605,0
14138.188,-9686.218,-8916.915,-3578.313,-7416.532,3198.848,-10759.057,-2904.654,-630.342,0
14138.188,-9679.803,-8916.245,-3574.021,-7424.780,3204.257,-10765.650,-2891.332,-631.213,0
14138.188,-9677.657,-8910.545,-3570.758,-7423.841,3206.268,-10761.002,-2876.781,-615.008,0
14138.188,-9678.551,-8903.058,-3570.289,-7411.995,3202.089,-10750.608,-2889.209,-619.859,0
14138.188,-9680.764,-8901.962,-3574.267,-7406.854,3200.412,-10744.081,-2899.938,-622.094,0
14138.188,-9680.139,-8902.521,-3576.257,-7415.124,3202.960,-10748.909,-2905.436,-625.111,0
14138.189,-9678.864,-8907.863,-3574.580,-7425.250,3208.503,-10754.475,-2885.275,-609.219,0
14138.189,-9677.121,-8906.030,-3571.205,-7423.551,3207.677,-10752.239,-2872.534,-612.482,0
14138.189,-9676.316,-8900.018,-3568.434,-7409.805,3203.743,-10743.188,-2877.876,-622.206,0
14138.189,-9675.937,-8896.173,-3570.177,-7403.367,3199.339,-10741.220,-2902.776,-640.132,0
14138.189,-9675.556,-8898.028,-3573.083,-7413.381,3201.708,-10748.932,-2900.072,-637.494,0
14138.247,-9677.121,-8904.354,-3574.513,-7425.473,3207.542,-10754.475,-2880.715,-603.050,0
14138.247,-9676.339,-8906.388,-3571.026,-7424.020,3206.827,-10754.027,-2877.474,-608.839,0
14138.247,-9677.858,-8904.488,-3570.333,-7412.017,3201.083,-10747.523,-2890.550,-629.693,0
14138.247,-9678.551,-8901.426,-3569.685,-7404.887,3196.612,-10747.747,-2909.102,-649.229,0
14138.248,-9680.898,-8904.622,-3573.686,-7415.683,3197.886,-10755.458,-2905.123,-626.497,0
14138.248,-9678.193,-8910.232,-3571.049,-7425.003,3201.977,-10762.052,-2886.772,-616.752,0
14138.248,-9673.388,-8910.120,-3566.042,-7421.137,3202.290,-10760.822,-2876.871,-619.501,0
14138.248,-9673.410,-8903.236,-3565.774,-7409.312,3197.283,-10752.553,-2883.643,-632.197,0
14138.248,-9675.892,-8902.678,-3569.954,-7404.373,3192.902,-10750.295,-2902.910,-639.640,0
14138.248,-9676.920,-8905.583,-3572.949,-7414.543,3196.836,-10755.928,-2899.737,-617.489,0
14138.248,-9674.908,-8908.087,-3570.065,-7425.562,3200.367,-10766.701,-2885.990,-612.930,0
14138.248,-9670.549,-8905.538,-3566.087,-7421.383,3200.546,-10764.622,-2888.851,-614.986,0
14138.249,-9670.639,-8902.364,-3566.713,-7408.978,3195.495,-10758.945,-2908.230,-646.904,0
14138.249,-9675.132,-8902.990,-3571.585,-7405.938,3192.455,-10755.637,-2921.060,-659.645,0
14138.249,-9678.306,-8907.215,-3575.944,-7415.236,3196.478,-10758.588,-2914.645,-647.105,0
14138.306,-9679.334,-8911.283,-3576.681,-7426.166,3202.021,-10762.610,-2898.373,-627.548,0
14138.307,-9678.819,-8912.423,-3572.457,-7422.992,3204.771,-10759.102,-2878.234,-615.612,0
14138.307,-9677.881,-8907.506,-3572.949,-7409.849,3199.339,-10752.217,-2901.502,-630.543,0
14138.307,-9681.077,-8907.773,-3578.559,-7405.043,3195.316,-10751.167,-2918.534,-652.805,0
14138.307,-9683.223,-8910.925,-3581.845,-7415.459,3196.478,-10756.755,-2913.841,-650.436,0
14138.307,-9681.747,-8914.256,-3579.542,-7426.680,3201.999,-10759.996,-2899.960,-627.279,0
14138.308,-9676.606,-8912.423,-3574.625,-7423.729,3201.865,-10757.962,-2901.659,-624.977,0
14138.308,-9676.473,-8910.522,-3573.195,-7412.062,3195.763,-10751.949,-2908.342,-643.261,0
14138.308,-9679.355,-8909.808,-3575.162,-7407.078,3192.634,-10749.804,-2917.506,-651.576,0
14138.308,-9679.780,-8910.210,-3577.710,-7417.538,3196.970,-10755.704,-2912.231,-638.411,0
14138.308,-9676.584,-8907.662,-3575.273,-7427.842,3202.245,-10761.739,-2895.713,-624.865,0
14138.309,-9672.427,-8905.069,-3567.540,-7423.663,3203.117,-10760.286,-2891.042,-626.452,0
14138.309,-9672.517,-8902.342,-3565.595,-7410.922,3200.122,-10748.977,-2906.621,-616.126,0
14138.309,-9675.601,-8901.068,-3568.657,-7404.954,3197.886,-10746.651,-2916.165,-637.762,0
14138.309,-9677.992,-8906.365,-3572.122,-7415.281,3199.473,-10756.375,-2908.498,-645.273,0
14138.366,-9677.567,-8914.859,-3570.557,-7426.144,3203.385,-10764.936,-2892.919,-629.537,0
14138.367,-9676.093,-8915.999,-3567.719,-7424.266,3203.743,-10761.649,-2894.037,-612.103,0
14138.367,-9674.260,-8910.255,-3565.550,-7410.453,3198.110,-10755.593,-2905.190,-631.437,0
14138.367,-9676.562,-8909.383,-3570.065,-7405.401,3193.058,-10755.458,-2915.539,-648.335,0
14138.367,-9675.980,-8910.321,-3575.184,-7415.080,3193.662,-10763.952,-2915.807,-651.665,0
14138.367,-9672.293,-8909.003,-3573.150,-7424.154,3197.216,-10771.194,-2905.861,-640.936,0
14138.368,-9671.511,-8911.261,-3570.155,-7421.852,3196.657,-10768.378,-2900.519,-629.336,0
14138.368,-9671.533,-8907.952,-3569.954,-7408.978,3190.689,-10761.940,-2912.611,-642.233,0
14138.368,-9671.756,-8901.783,-3573.530,-7404.284,3188.096,-10759.481,-2916.322,-661.388,0
14138.368,-9669.901,-8903.058,-3577.352,-7413.873,3191.695,-10762.589,-2925.150,-646.547,0
14138.368,-9670.035,-8906.388,-3577.665,-7424.780,3195.763,-10769.651,-2904.721,-631.414,0
14138.368,-9666.929,-8904.778,-3572.167,-7421.964,3196.545,-10769.853,-2885.275,-637.740,0
14138.369,-9670.169,-8905.807,-3573.753,-7410.542,3192.589,-10761.158,-2897.077,-639.595,0
14138.369,-9673.500,-8902.923,-3579.207,-7405.468,3190.622,-10757.045,-2913.975,-648.379,0
14138.369,-9673.790,-8901.806,-3582.962,-7415.437,3194.265,-10761.851,-2915.271,-636.309,0
14138.427,-9666.526,-8899.437,-3580.124,-7425.741,3199.742,-10767.752,-2900.407,-623.636,0
14138.427,-9666.325,-8899.906,-3577.352,-7424.333,3199.518,-10766.590,-2901.078,-630.185,0
14138.428,-9674.192,-8902.074,-3576.704,-7411.995,3196.657,-10757.648,-2907.783,-639.461,0
14138.428,-9678.283,-8900.062,-3580.325,-7406.429,3194.467,-10752.687,-2922.558,-646.882,0
14138.428,-9678.127,-8900.979,-3582.001,-7415.817,3197.730,-10759.660,-2911.740,-647.798,0
14138.428,-9674.528,-8903.304,-3579.610,-7426.993,3200.658,-10769.070,-2903.983,-637.673,0
14138.428,-9673.187,-8902.945,-3574.759,-7424.355,3201.016,-10767.551,-2891.131,-636.667,0
14138.428,-9675.198,-8900.018,-3572.703,-7411.481,3198.110,-10757.202,-2901.346,-644.110,0
14138.428,-9679.445,-8898.028,-3577.866,-7407.972,3196.121,-10752.664,-2916.031,-658.438,0
14138.428,-9677.791,-8894.273,-3580.839,-7417.918,3198.490,-10759.235,-2914.980,-663.355,0
14138.428,-9674.640,-8895.569,-3578.648,-7427.485,3205.821,-10761.828,-2902.575,-623.748,0
14138.428,-9673.365,-8897.983,-3574.513,-7425.965,3207.990,-10758.431,-2885.096,-601.284,0
14138.429,-9671.421,-8890.987,-3571.630,-7412.688,3204.927,-10750.943,-2891.645,-619.501,0
14138.429,-9669.745,-8883.768,-3574.893,-7406.698,3201.574,-10750.295,-2907.694,-656.895,0
14138.429,-9670.795,-8886.428,-3580.012,-7417.605,3202.513,-10757.806,-2910.845,-652.604,0
14138.487,-9670.616,-8893.290,-3579.967,-7428.669,3207.721,-10761.627,-2895.825,-618.115,0
14138.488,-9670.817,-8894.721,-3578.894,-7427.261,3208.437,-10757.381,-2891.444,-605.956,0
14138.488,-9669.454,-8888.864,-3577.933,-7413.336,3202.625,-10750.295,-2901.793,-633.940,0
14138.488,-9668.962,-8881.108,-3580.660,-7406.452,3199.742,-10745.534,-2911.561,-648.916,0
14138.488,-9670.281,-8884.349,-3584.370,-7416.912,3202.871,-10750.876,-2909.191,-637.226,0
14138.489,-9670.684,-8890.250,-3584.080,-7428.669,3206.492,-10757.693,-2897.144,-617.869,0
14138.489,-9671.041,-8894.340,-3582.336,-7428.468,3202.401,-10758.342,-2896.384,-617.512,0
14138.489,-9670.505,-8891.524,-3576.368,-7413.224,3196.948,-10751.613,-2904.922,-634.745,0
14138.489,-9672.583,-8888.350,-3578.984,-7407.346,3192.388,-10751.212,-2917.506,-655.979,0
14138.489,-9674.751,-8890.384,-3581.599,-7417.426,3193.595,-10759.728,-2911.672,-658.058,0
14138.489,-9676.830,-8899.012,-3579.766,-7427.909,3198.713,-10764.176,-2892.942,-629.515,0
14138.490,-9676.808,-8901.738,-3574.647,-7424.713,3198.624,-10762.275,-2885.811,-617.623,0
14138.490,-9676.651,-8895.391,-3572.077,-7411.481,3190.801,-10758.811,-2904.140,-649.698,0
14138.490,-9678.573,-8894.206,-3576.033,-7407.055,3188.208,-10754.698,-2907.448,-647.374,0
14138.490,-9679.691,-8897.134,-3579.274,-7417.672,3191.405,-10759.951,-2895.624,-638.791,0
14138.547,-9682.307,-8905.472,-3578.403,-7430.458,3196.411,-10766.053,-2879.955,-609.621,0
14138.547,-9679.378,-8905.517,-3570.959,-7426.390,3196.277,-10766.231,-2881.721,-621.110,0
14138.547,-9678.216,-8899.705,-3567.383,-7412.487,3192.299,-10759.370,-2890.773,-645.764,0
14138.548,-9681.032,-8899.548,-3570.602,-7407.189,3191.539,-10755.369,-2902.955,-644.267,0
14138.548,-9681.301,-8903.304,-3573.195,-7417.337,3197.372,-10758.789,-2907.560,-627.503,0
14138.548,-9675.020,-8898.297,-3571.116,-7427.954,3201.440,-10763.751,-2906.129,-618.607,0
14138.548,-9673.231,-8897.716,-3568.098,-7426.836,3200.412,-10764.131,-2888.337,-630.811,0
14138.548,-9675.578,-8897.581,-3571.876,-7415.169,3197.194,-10755.369,-2892.562,-633.091,0
14138.548,-9677.858,-8898.811,-3576.883,-7409.849,3194.601,-10752.910,-2912.455,-642.300,0
14138.549,-9676.271,-8895.368,-3579.744,-7418.365,3196.322,-10759.996,-2910.845,-646.591,0
14138.549,-9674.952,-8894.430,-3578.224,-7429.653,3201.507,-10765.964,-2889.231,-628.643,0
14138.549,-9673.187,-8893.223,-3574.491,-7427.351,3203.542,-10761.404,-2876.401,-619.412,0
14138.549,-9670.304,-8887.076,-3573.686,-7413.828,3197.328,-10755.860,-2900.072,-652.760,0
14138.549,-9672.695,-8884.685,-3577.218,-7407.771,3195.718,-10752.440,-2916.612,-658.907,0
14138.550,-9675.937,-8888.148,-3582.292,-7417.314,3197.618,-10757.895,-2919.562,-646.547,0
14138.607,-9676.428,-8893.223,-3582.247,-7428.647,3201.105,-10763.125,-2903.335,-630.476,0
14138.607,-9675.467,-8895.659,-3580.057,-7427.574,3200.077,-10761.113,-2903.112,-628.509,0
14138.607,-9675.534,-8890.451,-3578.045,-7414.677,3196.344,-10753.983,-2921.999,-645.720,0
14138.607,-9680.697,-8892.485,-3581.510,-7410.542,3194.802,-10750.898,-2911.851,-651.263,0
14138.607,-9677.411,-8892.061,-3582.113,-7418.946,3195.606,-10758.274,-2914.690,-654.437,0
14138.607,-9676.048,-8897.536,-3581.800,-7430.860,3199.630,-10765.315,-2909.393,-629.380,0
14138.607,-9674.371,-8899.190,-3577.799,-7429.094,3199.496,-10763.460,-2907.224,-628.352,0
14138.607,-9673.656,-8891.233,-3575.296,-7415.459,3194.355,-10755.234,-2915.204,-650.771,0
14138.607,-9677.165,-8887.992,-3579.229,-7410.877,3193.125,-10751.658,-2917.104,-646.211,0
14138.607,-9672.069,-8886.338,-3578.045,-7418.388,3193.707,-10762.477,-2915.875,-664.786,0
14138.607,-9667.018,-8891.010,-3573.306,-7428.982,3197.082,-10768.243,-2899.491,-641.204,0
14138.607,-9672.807,-8894.251,-3576.056,-7429.184,3199.071,-10761.561,-2888.762,-607.342,0
14138.608,-9677.545,-8891.792,-3576.659,-7416.912,3194.467,-10755.123,-2904.967,-627.056,0
14138.608,-9676.003,-8888.641,-3577.553,-7411.123,3191.673,-10754.117,-2923.385,-649.139,0
14138.608,-9677.926,-8892.552,-3579.766,-7421.807,3196.970,-10758.744,-2905.392,-647.865,0
14138.667,-9678.953,-8895.569,-3579.051,-7432.693,3203.921,-10761.762,-2886.437,-624.083,0
14138.667,-9678.774,-8895.972,-3576.883,-7430.703,3203.474,-10758.364,-2877.251,-617.668,0
14138.668,-9679.021,-8893.290,-3574.513,-7417.314,3198.535,-10750.697,-2892.517,-631.951,0
14138.668,-9681.948,-8891.412,-3580.213,-7413.425,3194.578,-10748.819,-2912.030,-643.931,0
14138.668,-9682.888,-8893.894,-3584.370,-7423.439,3197.797,-10753.335,-2907.448,-632.420,0
14138.668,-9681.457,-8897.156,-3582.672,-7433.564,3202.178,-10758.654,-2884.582,-617.020,0
14138.668,-9678.842,-8894.139,-3578.380,-7429.921,3200.301,-10758.677,-2877.810,-628.464,0
14138.668,-9678.618,-8886.920,-3579.319,-7417.337,3195.696,-10749.312,-2896.697,-629.246,0
14138.669,-9680.741,-8884.707,-3586.829,-7412.710,3194.154,-10743.970,-2912.700,-628.173,0
14138.669,-9682.194,-8886.204,-3592.395,-7423.685,3194.310,-10754.027,-2910.667,-634.074,0
14138.669,-9682.128,-8891.546,-3593.557,-7435.799,3197.931,-10763.170,-2903.134,-624.843,0
14138.669,-9678.953,-8891.993,-3589.511,-7431.441,3198.401,-10759.191,-2896.317,-612.170,0
14138.669,-9677.300,-8885.802,-3586.315,-7417.449,3191.918,-10753.290,-2907.940,-639.640,0
14138.670,-9680.116,-8885.892,-3589.780,-7413.582,3189.281,-10751.726,-2913.192,-652.604,0
14138.670,-9678.998,-8886.920,-3592.126,-7423.037,3193.260,-10756.509,-2911.650,-638.165,0
14138.727,-9674.215,-8884.818,-3587.701,-7431.866,3197.998,-10763.438,-2898.932,-636.287,0
14138.727,-9670.750,-8885.757,-3582.582,-7428.356,3197.953,-10759.795,-2888.225,-628.688,0
14138.728,-9672.449,-8882.985,-3583.588,-7416.912,3189.281,-10753.826,-2914.869,-644.133,0
14138.728,-9675.221,-8882.069,-3587.790,-7412.844,3188.096,-10748.351,-2930.850,-642.434,0
14138.728,-9673.098,-8882.517,-3588.796,-7422.500,3190.086,-10757.872,-2930.090,-653.677,0
14138.728,-9672.114,-8884.707,-3585.980,-7433.341,3195.629,-10765.137,-2899.737,-640.690,0
14138.728,-9673.946,-8889.199,-3584.236,-7430.703,3198.401,-10759.124,-2880.648,-618.719,0
14138.729,-9676.339,-8890.786,-3585.309,-7417.516,3195.696,-10748.149,-2898.083,-619.009,0
14138.729,-9676.875,-8888.462,-3588.103,-7413.157,3191.605,-10749.603,-2915.271,-645.563,0
14138.729,-9673.745,-8884.818,-3589.489,-7422.411,3191.807,-10760.376,-2914.578,-658.862,0
14138.729,-9673.455,-8886.182,-3587.746,-7433.475,3196.121,-10765.539,-2897.434,-631.482,0
14138.729,-9673.656,-8885.914,-3584.013,-7430.346,3196.210,-10762.253,-2896.920,-622.206,0
14138.729,-9673.187,-8879.052,-3582.336,-7417.158,3191.069,-10755.123,-2907.783,-638.723,0
14138.730,-9675.601,-8879.588,-3586.918,-7413.738,3187.091,-10753.245,-2915.584,-652.827,0
14138.730,-9677.434,-8884.349,-3594.205,-7424.981,3188.141,-10759.660,-2918.557,-641.249,0
14138.787,-9677.680,-8890.585,-3593.825,-7434.146,3192.969,-10765.449,-2899.200,-625.491,0
14138.788,-9673.880,-8889.691,-3586.852,-7428.893,3191.918,-10766.433,-2898.932,-636.086,0
14138.788,-9673.925,-8882.271,-3587.589,-7416.152,3186.375,-10760.845,-2918.289,-653.565,0
14138.788,-9677.947,-8879.029,-3593.021,-7413.045,3182.307,-10761.225,-2936.147,-676.788,0
14138.788,-9680.205,-8883.812,-3596.798,-7422.992,3185.995,-10766.008,-2929.576,-664.786,0
14138.788,-9680.361,-8887.926,-3594.809,-7433.676,3191.471,-10771.104,-2914.980,-642.188,0
14138.788,-9682.194,-8889.646,-3591.255,-7431.910,3192.902,-10767.752,-2904.877,-629.112,0
14138.788,-9684.362,-8887.389,-3588.617,-7418.030,3190.108,-10758.229,-2910.197,-639.349,0
14138.788,-9686.486,-8887.344,-3592.350,-7413.783,3188.141,-10755.101,-2930.738,-650.235,0
14138.788,-9688.341,-8896.598,-3595.122,-7425.719,3189.885,-10763.616,-2925.307,-652.872,0
14138.788,-9685.101,-8896.866,-3591.165,-7435.777,3193.841,-10769.741,-2909.236,-641.204,0
14138.788,-9685.279,-8895.324,-3587.924,-7433.453,3195.294,-10766.008,-2883.152,-627.190,0
14138.789,-9685.302,-8890.451,-3587.053,-7419.818,3189.035,-10760.085,-2906.308,-647.798,0
14138.789,-9687.760,-8888.953,-3590.182,-7415.839,3184.945,-10758.453,-2924.636,-668.451,0
14138.789,-9688.252,-8891.100,-3593.624,-7427.149,3188.119,-10765.024,-2925.106,-665.166,0
14138.848,-9684.318,-8892.888,-3593.333,-7437.074,3194.310,-10767.483,-2908.655,-623.949,0
14138.848,-9680.831,-8890.384,-3591.389,-7433.207,3192.701,-10766.209,-2910.465,-630.699,0
14138.848,-9683.580,-8887.926,-3590.718,-7420.757,3188.722,-10759.034,-2906.509,-643.864,0
14138.849,-9686.084,-8888.529,-3594.943,-7416.510,3186.040,-10756.732,-2916.657,-652.425,0
14138.849,-9686.308,-8894.631,-3596.530,-7427.306,3188.879,-10765.092,-2902.218,-652.827,0
14138.849,-9685.279,-8899.168,-3595.122,-7437.699,3192.187,-10775.083,-2896.697,-650.905,0
14138.849,-9684.721,-8901.091,-3590.472,-7434.593,3190.376,-10776.581,-2902.687,-661.187,0
14138.850,-9685.503,-8899.995,-3587.790,-7421.628,3187.046,-10765.092,-2913.192,-658.505,0
14138.850,-9687.492,-8895.212,-3589.735,-7416.689,3186.331,-10758.364,-2924.703,-649.966,0
14138.850,-9688.051,-8896.933,-3593.982,-7428.222,3189.616,-10763.013,-2919.741,-639.729,0
14138.850,-9683.916,-8897.492,-3593.333,-7437.409,3195.741,-10768.109,-2898.887,-624.888,0
14138.850,-9681.412,-8895.682,-3589.601,-7434.369,3195.964,-10767.931,-2889.656,-623.882,0
14138.850,-9683.715,-8894.497,-3588.506,-7421.271,3189.594,-10764.846,-2905.034,-651.375,0
14138.851,-9688.162,-8896.731,-3594.585,-7418.052,3185.057,-10764.533,-2926.827,-663.489,0
14138.851,-9688.944,-8902.633,-3596.932,-7427.999,3188.052,-10770.881,-2927.117,-667.401,0
14138.908,-9690.353,-8908.980,-3595.412,-7439.219,3193.036,-10776.312,-2913.773,-650.480,0
14138.908,-9690.510,-8910.680,-3594.585,-7436.738,3193.014,-10773.184,-2913.639,-639.640,0
14138.908,-9692.007,-8906.880,-3596.306,-7424.735,3188.029,-10765.182,-2919.361,-654.146,0
14138.909,-9693.080,-8901.358,-3598.564,-7419.907,3184.788,-10763.840,-2930.492,-674.084,0
14138.909,-9691.403,-8900.264,-3599.368,-7430.010,3185.414,-10772.646,-2932.616,-673.950,0
14138.909,-9686.710,-8898.855,-3595.882,-7439.130,3191.449,-10775.865,-2920.121,-647.888,0
14138.909,-9683.759,-8899.057,-3591.545,-7436.224,3193.371,-10772.960,-2897.211,-650.771,0
14138.909,-9683.759,-8892.172,-3591.724,-7424.557,3189.415,-10763.639,-2908.051,-659.533,0
14138.909,-9685.949,-8887.769,-3597.290,-7420.243,3189.057,-10756.732,-2924.525,-657.722,0
14138.910,-9689.526,-8894.698,-3601.559,-7431.508,3194.690,-10761.426,-2903.983,-643.261,0
14138.910,-9688.811,-8899.548,-3597.647,-7441.320,3200.278,-10768.378,-2893.590,-632.934,0
14138.910,-9688.073,-8901.068,-3592.842,-7437.297,3202.089,-10765.829,-2889.276,-630.476,0
14138.910,-9691.604,-8899.168,-3592.685,-7424.981,3197.283,-10757.716,-2905.190,-637.785,0
14138.910,-9694.443,-8896.128,-3596.105,-7420.377,3193.528,-10759.034,-2918.490,-666.060,0
14138.910,-9697.438,-8901.157,-3600.464,-7431.866,3196.165,-10767.081,-2906.710,-663.802,0
14138.967,-9697.059,-8904.913,-3598.206,-7442.751,3202.066,-10772.222,-2890.639,-636.779,0
14138.968,-9694.823,-8903.526,-3593.602,-7438.303,3203.519,-10768.355,-2889.254,-618.786,0
14138.968,-9694.823,-8900.956,-3593.356,-7425.629,3197.260,-10761.851,-2905.213,-646.658,0
14138.968,-9694.511,-8893.580,-3596.507,-7421.070,3192.209,-10760.644,-2925.486,-675.559,0
14138.968,-9695.158,-8892.977,-3601.246,-7432.156,3195.718,-10765.137,-2921.708,-654.057,0
14138.968,-9694.443,-8898.654,-3600.196,-7442.214,3201.016,-10770.971,-2903.849,-629.783,0
14138.968,-9696.880,-8904.913,-3597.446,-7439.376,3201.418,-10768.221,-2900.876,-631.459,0
14138.968,-9698.176,-8903.348,-3594.429,-7426.054,3197.238,-10759.191,-2911.203,-646.211,0
14138.969,-9700.232,-8902.610,-3596.686,-7422.478,3194.534,-10757.313,-2919.048,-660.852,0
14138.969,-9700.479,-8905.293,-3600.285,-7432.693,3196.545,-10762.298,-2917.730,-649.475,0
14138.969,-9700.076,-8911.283,-3598.385,-7443.936,3200.345,-10768.087,-2900.094,-632.532,0
14138.969,-9698.556,-8913.116,-3590.942,-7440.940,3200.949,-10763.729,-2898.977,-620.976,0
14138.969,-9698.064,-8907.818,-3587.455,-7427.440,3196.076,-10755.257,-2913.594,-637.204,0
14138.969,-9699.897,-8907.952,-3589.444,-7423.104,3191.918,-10754.475,-2926.782,-652.023,0
14138.969,-9700.680,-8914.457,-3591.277,-7434.525,3194.288,-10763.975,-2909.236,-653.364,0
14139.027,-9698.243,-8923.465,-3588.662,-7444.450,3201.239,-10767.863,-2882.213,-614.628,0
14139.027,-9693.146,-8923.510,-3584.192,-7440.694,3199.138,-10766.746,-2885.700,-615.902,0
14139.028,-9691.180,-8917.475,-3580.906,-7427.462,3193.863,-10762.790,-2901.100,-642.769,0
14139.028,-9693.817,-8913.004,-3583.677,-7423.283,3191.516,-10762.969,-2912.700,-662.170,0
14139.028,-9695.248,-8915.508,-3587.812,-7434.324,3193.260,-10772.445,-2908.945,-660.405,0
14139.028,-9693.930,-8916.826,-3587.969,-7443.600,3198.915,-10776.335,-2898.485,-630.811,0
14139.028,-9693.930,-8917.072,-3586.695,-7441.253,3198.691,-10771.686,-2896.428,-612.460,0
14139.029,-9692.364,-8912.691,-3586.941,-7427.730,3193.148,-10763.930,-2894.193,-634.253,0
14139.029,-9692.253,-8909.539,-3590.160,-7423.126,3188.454,-10760.510,-2912.231,-645.496,0
14139.029,-9691.180,-8911.887,-3591.903,-7432.961,3191.382,-10766.769,-2905.839,-644.133,0
14139.029,-9688.722,-8911.484,-3590.919,-7443.108,3195.718,-10771.127,-2887.085,-627.123,0
14139.029,-9685.592,-8908.489,-3586.963,-7439.398,3193.662,-10767.215,-2896.272,-630.632,0
14139.030,-9686.620,-8905.829,-3584.348,-7425.875,3189.214,-10759.974,-2909.638,-645.675,0
14139.030,-9691.471,-8906.745,-3588.438,-7422.970,3188.007,-10759.258,-2912.432,-659.019,0
14139.030,-9690.800,-8907.773,-3591.724,-7432.737,3192.477,-10763.796,-2907.314,-645.250,0
14139.088,-9687.782,-8908.779,-3591.456,-7442.729,3197.618,-10769.249,-2895.758,-624.888,0
14139.088,-9682.149,-8905.472,-3587.209,-7438.705,3196.121,-10768.534,-2893.254,-633.381,0
14139.088,-9678.238,-8899.168,-3583.812,-7425.026,3191.002,-10762.566,-2910.197,-659.242,0
14139.088,-9682.687,-8899.213,-3587.455,-7421.763,3187.873,-10759.437,-2923.653,-654.750,0
14139.088,-9684.027,-8904.979,-3590.607,-7432.648,3189.147,-10766.947,-2918.646,-649.095,0
14139.089,-9682.530,-8908.020,-3588.461,-7441.656,3192.746,-10771.909,-2895.490,-632.644,0
14139.089,-9680.340,-8908.779,-3584.415,-7438.348,3190.622,-10770.434,-2898.619,-618.964,0
14139.089,-9679.535,-8906.254,-3582.404,-7425.026,3184.766,-10764.310,-2922.267,-639.662,0
14139.089,-9680.250,-8905.896,-3584.706,-7419.729,3182.039,-10765.248,-2923.362,-663.780,0
14139.089,-9679.400,-8904.957,-3588.260,-7430.145,3184.699,-10773.474,-2921.842,-663.154,0
14139.090,-9682.351,-8910.210,-3587.611,-7442.639,3190.175,-10781.028,-2895.825,-645.496,0
14139.090,-9681.859,-8909.562,-3583.298,-7439.443,3194.355,-10775.530,-2889.209,-629.380,0
14139.090,-9682.105,-8902.186,-3583.655,-7426.903,3190.645,-10767.931,-2908.990,-644.535,0
14139.090,-9685.234,-8901.403,-3588.617,-7423.260,3186.979,-10767.818,-2922.424,-658.974,0
14139.090,-9683.356,-8904.622,-3591.456,-7432.469,3190.957,-10772.669,-2914.712,-656.672,0
14139.148,-9677.992,-8903.616,-3589.444,-7441.343,3195.361,-10777.564,-2906.934,-648.603,0
14139.148,-9677.680,-8905.673,-3589.154,-7438.459,3194.042,-10773.787,-2907.403,-639.305,0
14139.148,-9682.038,-8904.376,-3590.629,-7426.747,3188.409,-10764.176,-2922.513,-638.142,0
14139.148,-9679.959,-8897.357,-3589.511,-7420.288,3186.353,-10763.394,-2927.788,-663.288,0
14139.149,-9683.692,-8902.074,-3591.992,-7432.380,3189.594,-10772.065,-2916.053,-657.477,0
14139.149,-9687.135,-8910.009,-3590.383,-7443.891,3194.936,-10776.760,-2898.060,-635.035,0
14139.149,-9686.844,-8913.585,-3586.717,-7439.465,3195.294,-10774.233,-2906.464,-634.365,0
14139.149,-9688.855,-8913.429,-3587.991,-7426.725,3188.141,-10770.546,-2919.965,-664.808,0
14139.149,-9694.131,-8912.893,-3593.155,-7423.305,3186.420,-10768.199,-2919.831,-662.774,0
14139.150,-9694.577,-8912.646,-3595.010,-7433.810,3188.298,-10775.799,-2916.567,-657.521,0
14139.150,-9693.594,-8917.475,-3593.535,-7444.383,3192.678,-10783.085,-2899.781,-648.134,0
14139.150,-9691.113,-8916.111,-3590.607,-7439.823,3192.701,-10778.815,-2903.894,-643.641,0
14139.150,-9691.023,-8911.842,-3590.875,-7425.808,3186.979,-10770.858,-2924.033,-660.226,0
14139.150,-9693.996,-8911.507,-3595.144,-7420.958,3183.693,-10768.422,-2937.399,-666.730,0
14139.151,-9696.142,-8914.681,-3597.759,-7431.441,3186.308,-10777.251,-2937.019,-665.881,0
14139.208,-9695.472,-8919.509,-3595.703,-7441.231,3193.662,-10781.677,-2912.700,-647.999,0
14139.208,-9693.772,-8918.905,-3590.785,-7437.722,3192.634,-10780.582,-2914.019,-652.470,0
14139.208,-9695.158,-8916.379,-3590.718,-7425.853,3186.062,-10775.016,-2928.481,-673.726,0
14139.208,-9698.176,-8917.430,-3595.926,-7423.104,3181.726,-10775.038,-2939.456,-687.361,0
14139.208,-9699.182,-8922.034,-3597.804,-7432.983,3186.174,-10781.028,-2931.923,-674.710,0
14139.208,-9697.975,-8923.309,-3596.396,-7444.293,3189.035,-10789.075,-2923.563,-671.938,0
14139.209,-9696.098,-8921.855,-3594.026,-7442.371,3187.694,-10787.846,-2917.059,-672.206,0
14139.209,-9697.394,-8919.530,-3595.993,-7429.898,3185.459,-10777.564,-2923.005,-669.792,0
14139.209,-9699.137,-8918.949,-3597.871,-7425.183,3186.778,-10772.445,-2922.803,-668.809,0
14139.209,-9699.338,-8921.341,-3601.022,-7436.135,3188.387,-10777.251,-2927.296,-656.381,0
14139.209,-9697.662,-8922.638,-3599.055,-7446.953,3191.784,-10782.526,-2918.892,-637.516,0
14139.209,-9692.141,-8917.921,-3592.752,-7441.678,3191.784,-10780.470,-2909.661,-651.106,0
14139.209,-9691.962,-8910.858,-3591.255,-7428.290,3184.967,-10774.972,-2921.105,-675.716,0
14139.209,-9695.047,-8908.779,-3598.094,-7425.272,3182.374,-10769.004,-2936.930,-663.556,0
14139.209,-9694.152,-8914.322,-3600.732,-7435.330,3185.347,-10776.446,-2935.432,-669.077,0
14139.268,-9693.996,-8919.799,-3598.094,-7446.238,3191.471,-10782.906,-2909.281,-646.524,0
14139.269,-9693.326,-8920.269,-3594.518,-7443.399,3190.890,-10781.229,-2902.620,-642.501,0
14139.269,-9693.817,-8913.295,-3593.691,-7429.541,3186.688,-10772.445,-2925.083,-655.510,0
14139.269,-9695.449,-8911.439,-3598.117,-7425.361,3184.118,-10771.283,-2946.720,-670.530,0
14139.269,-9697.931,-8919.844,-3599.771,-7436.403,3187.895,-10779.576,-2928.682,-664.137,0
14139.269,-9696.321,-8924.806,-3597.983,-7447.087,3193.170,-10786.371,-2896.764,-648.670,0
14139.269,-9692.499,-8923.644,-3592.641,-7441.991,3193.953,-10782.951,-2893.411,-645.720,0
14139.270,-9691.896,-8918.569,-3590.338,-7427.797,3191.315,-10774.323,-2912.253,-662.416,0
14139.270,-9695.047,-8916.155,-3594.339,-7425.428,3188.119,-10775.284,-2931.498,-691.697,0
14139.270,-9698.064,-8922.839,-3597.044,-7437.431,3191.024,-10782.459,-2924.145,-679.605,0
14139.270,-9696.724,-8929.835,-3594.362,-7447.020,3194.869,-10787.197,-2917.148,-652.000,0
14139.270,-9694.756,-8930.617,-3589.802,-7443.421,3194.109,-10785.655,-2913.460,-652.827,0
14139.270,-9696.589,-8928.605,-3591.858,-7430.994,3188.610,-10778.794,-2919.719,-667.311,0
14139.271,-9699.629,-8925.744,-3596.507,-7427.015,3185.906,-10776.357,-2929.285,-676.163,0
14139.271,-9698.779,-8923.309,-3601.134,-7438.392,3186.778,-10782.750,-2937.153,-667.110,0
14139.329,-9694.175,-8922.414,-3600.173,-7447.847,3188.610,-10790.886,-2925.754,-667.468,0
14139.329,-9691.694,-8922.012,-3599.927,-7444.047,3186.576,-10788.203,-2924.793,-660.740,0
14139.329,-9689.235,-8917.497,-3598.229,-7428.960,3181.167,-10779.509,-2944.105,-671.156,0
14139.329,-9690.241,-8916.379,-3602.118,-7425.518,3177.278,-10779.039,-2949.313,-688.769,0
14139.329,-9690.979,-8915.552,-3607.169,-7437.074,3180.631,-10785.029,-2935.387,-681.393,0
14139.329,-9687.604,-8916.535,-3605.962,-7446.528,3185.012,-10790.438,-2926.782,-666.663,0
14139.330,-9684.721,-8914.188,-3602.498,-7443.936,3182.106,-10790.662,-2930.180,-669.390,0
14139.330,-9681.278,-8905.449,-3598.720,-7429.340,3177.993,-10783.420,-2938.651,-686.400,0
14139.330,-9682.933,-8901.828,-3601.447,-7424.557,3176.809,-10780.000,-2943.613,-686.601,0
14139.330,-9682.999,-8905.695,-3603.369,-7433.989,3179.960,-10784.604,-2941.221,-675.067,0
14139.330,-9681.859,-8908.556,-3601.246,-7443.399,3183.917,-10789.276,-2925.083,-654.839,0
14139.330,-9679.199,-8906.433,-3597.066,-7440.493,3182.196,-10787.443,-2916.947,-657.454,0
14139.331,-9677.769,-8897.693,-3595.524,-7428.714,3176.183,-10779.554,-2927.430,-673.190,0
14139.331,-9684.206,-8902.789,-3596.999,-7426.032,3172.249,-10780.067,-2938.047,-686.958,0
14139.331,-9688.521,-8913.406,-3598.877,-7436.560,3175.468,-10788.315,-2934.739,-685.975,0
14139.387,-9689.615,-8920.090,-3597.871,-7446.685,3181.279,-10793.411,-2920.904,-663.892,0
14139.388,-9686.553,-8919.710,-3592.283,-7443.220,3181.749,-10790.372,-2926.335,-666.887,0
14139.388,-9687.179,-8916.469,-3588.036,-7429.474,3180.497,-10779.956,-2934.382,-675.380,0
14139.388,-9693.326,-8920.447,-3591.992,-7428.401,3178.195,-10777.944,-2936.281,-673.346,0
14139.388,-9696.410,-8928.650,-3595.032,-7440.046,3179.245,-10787.757,-2931.588,-683.896,0
14139.388,-9696.835,-8936.652,-3591.054,-7449.725,3185.481,-10790.662,-2919.630,-657.991,0
14139.388,-9696.946,-8935.355,-3587.142,-7447.713,3184.833,-10787.936,-2906.554,-656.068,0
14139.388,-9698.243,-8929.969,-3587.231,-7436.135,3178.306,-10780.783,-2931.141,-666.708,0
14139.388,-9700.680,-8930.841,-3590.674,-7431.866,3177.055,-10778.078,-2940.752,-676.967,0
14139.388,-9700.322,-8932.360,-3592.909,-7441.208,3181.078,-10786.192,-2933.488,-678.688,0
14139.388,-9698.311,-8931.444,-3591.188,-7451.021,3185.414,-10791.355,-2918.981,-660.941,0
14139.388,-9696.812,-8932.405,-3589.109,-7447.758,3185.437,-10789.254,-2912.187,-655.554,0
14139.389,-9696.880,-8929.209,-3588.751,-7434.436,3183.134,-10780.157,-2923.899,-665.143,0
14139.389,-9701.306,-8929.790,-3595.569,-7432.000,3181.570,-10777.206,-2934.717,-679.001,0
14139.389,-9703.474,-8934.238,-3601.291,-7445.188,3183.335,-10783.957,-2925.799,-669.077,0
14139.448,-9700.479,-8935.267,-3597.983,-7454.105,3187.448,-10787.086,-2912.119,-637.092,0
14139.448,-9696.790,-8930.326,-3594.920,-7449.523,3184.185,-10786.773,-2914.064,-651.822,0
14139.448,-9694.086,-8920.760,-3592.954,-7435.509,3177.301,-10780.604,-2928.637,-674.263,0
14139.448,-9693.594,-8914.345,-3594.071,-7430.078,3173.657,-10779.174,-2940.752,-689.753,0
14139.448,-9692.744,-8915.888,-3594.630,-7439.733,3176.429,-10785.187,-2940.171,-695.452,0
14139.448,-9692.700,-8924.313,-3591.747,-7450.216,3182.218,-10790.350,-2929.576,-668.228,0
14139.449,-9696.478,-8929.500,-3590.674,-7449.121,3185.548,-10782.303,-2908.901,-632.845,0
14139.449,-9700.411,-8929.723,-3589.936,-7437.588,3182.509,-10774.122,-2903.514,-650.503,0
14139.449,-9703.384,-8928.181,-3593.915,-7435.040,3182.598,-10767.104,-2914.243,-636.779,0
14139.449,-9701.037,-8927.488,-3595.636,-7444.852,3184.297,-10774.703,-2922.871,-643.328,0
14139.449,-9699.137,-8930.572,-3593.468,-7454.329,3187.091,-10782.772,-2906.598,-638.187,0
14139.449,-9696.164,-8929.343,-3588.997,-7449.546,3183.984,-10782.795,-2895.512,-649.966,0
14139.450,-9695.940,-8923.085,-3588.796,-7436.582,3178.306,-10774.435,-2898.038,-652.939,0
14139.450,-9697.506,-8920.671,-3593.937,-7433.408,3173.031,-10774.457,-2923.653,-658.907,0
14139.450,-9695.359,-8919.419,-3596.195,-7442.371,3174.529,-10783.577,-2927.095,-669.368,0
14139.508,-9692.163,-8920.916,-3593.423,-7451.245,3178.172,-10790.327,-2916.366,-661.545,0
14139.508,-9688.609,-8922.258,-3585.577,-7445.456,3177.166,-10791.802,-2916.232,-683.226,0
14139.508,-9692.253,-8922.213,-3585.868,-7432.737,3173.568,-10783.688,-2928.347,-679.851,0
14139.508,-9699.920,-8924.247,-3593.043,-7430.636,3174.305,-10777.251,-2934.449,-657.968,0
14139.509,-9702.915,-8930.215,-3595.569,-7442.259,3178.440,-10783.241,-2917.931,-659.935,0
14139.509,-9704.256,-8938.083,-3594.965,-7453.211,3183.403,-10787.667,-2899.334,-646.390,0
14139.509,-9701.551,-8934.864,-3590.495,-7448.629,3182.330,-10786.371,-2902.150,-652.447,0
14139.509,-9700.300,-8925.879,-3590.271,-7435.062,3177.546,-10778.995,-2920.524,-674.553,0
14139.509,-9704.546,-8926.236,-3596.463,-7431.553,3176.116,-10775.910,-2928.235,-675.224,0
14139.509,-9706.021,-8930.014,-3600.553,-7442.997,3178.798,-10783.331,-2926.581,-665.344,0
14139.510,-9705.642,-8933.813,-3599.346,-7453.323,3183.045,-10788.024,-2920.702,-652.514,0
14139.510,-9706.491,-8935.222,-3599.100,-7451.379,3181.927,-10785.477,-2906.397,-652.090,0
14139.510,-9705.328,-8929.388,-3598.989,-7437.878,3176.406,-10777.721,-2922.446,-670.239,0
14139.510,-9707.452,-8930.729,-3604.241,-7435.710,3171.780,-10777.922,-2941.534,-685.953,0
14139.510,-9707.810,-8933.456,-3605.292,-7445.456,3176.518,-10785.119,-2926.938,-680.789,0
14139.568,-9708.391,-8938.396,-3604.465,-7456.229,3182.352,-10791.087,-2908.945,-664.517,0
14139.568,-9703.697,-8934.372,-3598.564,-7449.971,3183.469,-10786.817,-2910.354,-668.719,0
14139.568,-9704.613,-8929.991,-3598.608,-7439.041,3177.636,-10780.067,-2924.055,-670.932,0
14139.569,-9706.849,-8929.320,-3601.358,-7434.861,3178.061,-10772.580,-2925.195,-655.174,0
14139.569,-9708.011,-8931.980,-3603.481,-7446.082,3181.592,-10779.308,-2921.239,-651.352,0
14139.569,-9706.916,-8935.423,-3599.592,-7455.357,3184.297,-10789.366,-2903.715,-656.225,0
14139.569,-9706.603,-8937.725,-3596.418,-7452.184,3181.011,-10788.226,-2909.124,-657.633,0
14139.569,-9707.943,-8934.037,-3594.764,-7440.024,3176.943,-10778.525,-2926.648,-660.449,0
14139.569,-9710.313,-8934.752,-3595.971,-7436.157,3177.613,-10774.636,-2914.489,-668.429,0
14139.569,-9711.319,-8939.603,-3598.161,-7447.467,3181.413,-10780.447,-2903.134,-667.356,0
14139.570,-9710.515,-8944.453,-3596.217,-7458.196,3184.788,-10787.377,-2897.613,-650.078,0
14139.570,-9713.040,-8949.616,-3594.295,-7454.776,3183.157,-10784.985,-2902.419,-637.494,0
14139.570,-9713.800,-8947.336,-3593.848,-7440.426,3178.910,-10777.698,-2916.947,-657.968,0
14139.570,-9715.499,-8942.486,-3599.011,-7437.722,3174.596,-10781.118,-2929.285,-685.103,0
14139.570,-9714.091,-8939.535,-3600.955,-7448.495,3177.032,-10788.315,-2928.101,-674.173,0
14139.629,-9710.291,-8940.340,-3597.826,-7458.375,3180.564,-10794.797,-2915.830,-661.031,0
14139.629,-9708.503,-8940.229,-3595.412,-7453.301,3181.145,-10791.355,-2910.063,-663.601,0
14139.629,-9711.632,-8937.144,-3599.100,-7441.656,3176.876,-10782.504,-2915.785,-665.702,0
14139.629,-9710.246,-8932.584,-3602.520,-7438.035,3174.261,-10779.375,-2930.850,-665.993,0
14139.629,-9708.234,-8934.528,-3603.079,-7447.959,3176.920,-10785.991,-2918.914,-668.004,0
14139.630,-9705.440,-8936.987,-3600.039,-7456.408,3182.106,-10788.695,-2904.945,-653.364,0
14139.630,-9703.205,-8934.306,-3595.412,-7451.691,3182.240,-10783.867,-2896.674,-654.437,0
14139.630,-9703.004,-8929.723,-3594.496,-7438.080,3179.871,-10771.462,-2910.130,-648.648,0
14139.630,-9704.948,-8928.427,-3597.647,-7434.436,3177.636,-10769.093,-2921.999,-654.593,0
14139.630,-9706.535,-8933.300,-3598.005,-7444.740,3182.509,-10776.066,-2902.285,-645.340,0
14139.631,-9707.184,-8939.781,-3596.932,-7455.648,3185.593,-10784.918,-2888.918,-637.204,0
14139.631,-9708.815,-8944.252,-3593.602,-7452.072,3183.961,-10784.828,-2893.411,-645.116,0
14139.631,-9713.196,-8946.487,-3592.238,-7439.935,3178.485,-10779.397,-2913.125,-670.463,0
14139.631,-9718.561,-8950.265,-3597.021,-7436.939,3177.256,-10777.497,-2931.454,-673.503,0
14139.631,-9724.148,-8960.747,-3602.945,-7448.987,3180.899,-10783.532,-2920.747,-655.286,0
14139.689,-9726.451,-8968.995,-3600.151,-7458.084,3186.666,-10787.779,-2892.226,-639.640,0
14139.689,-9724.618,-8965.643,-3595.479,-7453.413,3185.571,-10784.046,-2890.997,-641.942,0
14139.689,-9725.222,-8961.798,-3594.362,-7440.762,3179.558,-10776.871,-2911.114,-658.751,0
14139.690,-9732.285,-8964.815,-3600.709,-7438.884,3175.959,-10778.727,-2927.162,-674.240,0
14139.690,-9735.123,-8971.477,-3603.750,-7448.585,3180.989,-10786.706,-2922.401,-670.977,0
14139.690,-9734.073,-8977.958,-3601.671,-7459.336,3185.325,-10792.875,-2909.750,-652.492,0
14139.690,-9731.391,-8978.674,-3596.284,-7455.134,3184.587,-10789.970,-2907.090,-654.727,0
14139.690,-9734.051,-8978.271,-3594.362,-7441.365,3180.854,-10782.974,-2921.127,-666.417,0
14139.691,-9736.890,-8978.896,-3600.464,-7438.303,3176.384,-10785.409,-2936.371,-685.170,0
14139.691,-9734.855,-8968.280,-3603.750,-7448.048,3180.117,-10792.651,-2929.442,-680.924,0
14139.691,-9735.235,-8967.497,-3606.409,-7460.096,3183.224,-10800.140,-2904.766,-668.652,0
14139.691,-9732.308,-8963.452,-3602.967,-7455.849,3181.994,-10796.026,-2907.917,-670.150,0
14139.691,-9732.106,-8960.055,-3602.855,-7441.611,3175.132,-10789.008,-2931.476,-690.848,0
14139.691,-9731.056,-8959.562,-3606.812,-7437.900,3172.204,-10785.879,-2949.044,-694.424,0
14139.692,-9730.139,-8961.104,-3611.528,-7449.859,3176.384,-10789.634,-2926.938,-677.638,0
14139.692,-9729.759,-8965.665,-3610.187,-7459.716,3182.240,-10793.322,-2909.683,-649.631,0
14139.749,-9727.233,-8966.514,-3604.912,-7455.000,3181.815,-10791.557,-2905.816,-648.134,0
14139.749,-9723.746,-8957.842,-3601.648,-7440.203,3174.484,-10786.505,-2928.794,-681.192,0
14139.749,-9723.612,-8958.109,-3604.129,-7436.247,3170.550,-10785.477,-2941.087,-697.263,0
14139.749,-9722.986,-8959.786,-3605.448,-7446.685,3174.641,-10791.333,-2934.337,-679.717,0
14139.749,-9719.611,-8960.501,-3602.766,-7456.586,3179.759,-10798.128,-2909.527,-665.456,0
14139.749,-9716.795,-8960.166,-3600.508,-7453.323,3178.798,-10793.657,-2908.945,-648.469,0
14139.749,-9716.438,-8952.611,-3597.066,-7438.929,3174.819,-10787.377,-2928.011,-674.553,0
14139.749,-9720.260,-8952.700,-3601.291,-7437.364,3171.288,-10789.008,-2945.871,-693.284,0
14139.749,-9719.098,-8952.164,-3602.520,-7447.087,3175.333,-10795.825,-2934.046,-681.996,0
14139.749,-9716.124,-8955.718,-3599.749,-7455.223,3180.474,-10800.967,-2914.377,-666.350,0
14139.750,-9713.956,-8954.243,-3596.843,-7451.200,3178.597,-10797.100,-2916.635,-658.527,0
14139.750,-9714.157,-8950.510,-3596.195,-7438.705,3173.121,-10791.735,-2931.454,-681.393,0
14139.750,-9714.984,-8945.123,-3599.950,-7435.464,3171.936,-10790.796,-2936.930,-684.902,0
14139.750,-9711.319,-8940.765,-3600.575,-7445.209,3174.775,-10798.105,-2930.694,-681.840,0
14139.750,-9708.368,-8943.760,-3597.714,-7453.904,3179.871,-10801.727,-2913.818,-670.597,0
14139.809,-9707.676,-8947.962,-3594.876,-7450.216,3179.223,-10797.055,-2911.561,-666.775,0
14139.809,-9712.012,-8946.151,-3598.117,-7438.906,3174.775,-10789.590,-2925.396,-673.570,0
14139.809,-9712.928,-8944.811,-3602.699,-7434.704,3173.076,-10786.505,-2942.607,-689.596,0
14139.809,-9712.280,-8948.744,-3604.241,-7445.880,3176.228,-10790.997,-2928.302,-677.057,0
14139.809,-9710.671,-8949.840,-3600.240,-7454.843,3180.854,-10794.998,-2910.264,-660.136,0
14139.809,-9709.866,-8947.873,-3597.692,-7450.999,3179.290,-10792.920,-2912.477,-666.149,0
14139.809,-9708.972,-8941.838,-3597.670,-7438.750,3174.328,-10782.929,-2936.773,-671.804,0
14139.810,-9711.297,-8940.050,-3601.469,-7436.560,3174.685,-10777.027,-2931.409,-671.424,0
14139.810,-9712.638,-8942.620,-3604.085,-7447.690,3178.262,-10783.286,-2920.613,-672.743,0
14139.810,-9710.917,-8946.308,-3602.073,-7457.905,3181.838,-10788.740,-2906.263,-661.410,0
14139.810,-9706.200,-8941.972,-3597.334,-7452.809,3182.307,-10782.906,-2907.537,-643.194,0
14139.810,-9703.831,-8935.758,-3596.664,-7440.181,3176.362,-10778.234,-2926.514,-663.512,0
14139.810,-9706.356,-8938.284,-3601.447,-7438.080,3173.568,-10780.291,-2934.091,-676.811,0
14139.810,-9707.520,-8935.825,-3605.470,-7448.965,3177.323,-10790.327,-2921.954,-672.586,0
14139.810,-9706.401,-8941.637,-3604.353,-7457.973,3182.285,-10796.541,-2906.308,-655.890,0
14139.869,-9705.730,-8942.933,-3601.380,-7452.519,3181.056,-10795.155,-2911.337,-656.404,0
14139.869,-9707.340,-8941.368,-3599.659,-7439.577,3173.300,-10793.390,-2926.067,-688.702,0
14139.869,-9709.240,-8938.262,-3603.079,-7437.789,3168.024,-10797.837,-2944.730,-716.128,0
14139.870,-9709.464,-8937.837,-3607.348,-7449.322,3175.535,-10798.128,-2934.471,-670.597,0
14139.870,-9706.178,-8936.987,-3602.788,-7458.017,3180.676,-10803.000,-2915.092,-655.085,0
14139.870,-9701.774,-8932.629,-3596.060,-7451.938,3179.066,-10801.234,-2916.500,-666.797,0
14139.870,-9701.998,-8928.181,-3595.680,-7439.532,3172.808,-10794.082,-2926.760,-688.478,0
14139.870,-9704.502,-8927.689,-3599.815,-7437.252,3171.176,-10792.115,-2938.047,-698.425,0
14139.870,-9704.188,-8929.924,-3602.900,-7449.658,3174.350,-10797.658,-2934.404,-696.167,0
14139.870,-9703.854,-8935.132,-3600.799,-7459.716,3178.999,-10801.123,-2907.537,-676.252,0
